OOI LIBS	Data File
Monday	January	23	2012
Averages	1
QSwitch Delay	-2.9us

Data
Wavelength	Counts
198.77501	2.4000
198.83018	-4.6000
198.88535	8.4000
198.94051	0.4000
198.99567	-0.6000
199.05083	-0.6000
199.10598	-2.6000
199.16113	2.4000
199.21627	0.4000
199.27141	2.4000
199.32654	1.4000
199.38167	-1.6000
199.43679	-6.6000
199.49191	-0.6000
199.54703	0.4000
199.60214	2.4000
199.65725	0.4000
199.71235	-0.6000
199.76745	2.4000
199.82254	-5.6000
199.87763	-0.6000
199.93271	0.4000
199.98779	3.4000
200.04287	3.4000
200.09794	3.4000
200.15301	2.4000
200.20807	-1.6000
200.26313	7.4000
200.31818	19.4000
200.37323	20.4000
200.42828	21.4000
200.48332	20.4000
200.53835	27.4000
200.59339	12.4000
200.64841	22.4000
200.70344	25.4000
200.75845	21.4000
200.81347	12.4000
200.86848	15.4000
200.92348	13.4000
200.97848	14.4000
201.03348	17.4000
201.08847	24.4000
201.14346	15.4000
201.19844	7.4000
201.25342	16.4000
201.30840	20.4000
201.36337	18.4000
201.41833	10.4000
201.47329	16.4000
201.52825	15.4000
201.58320	16.4000
201.63815	14.4000
201.69309	16.4000
201.74803	22.4000
201.80297	12.4000
201.85790	15.4000
201.91282	20.4000
201.96774	19.4000
202.02266	9.4000
202.07757	19.4000
202.13248	18.4000
202.18738	11.4000
202.24228	19.4000
202.29718	18.4000
202.35207	12.4000
202.40695	12.4000
202.46184	16.4000
202.51671	18.4000
202.57159	12.4000
202.62645	17.4000
202.68132	21.4000
202.73618	19.4000
202.79103	19.4000
202.84588	19.4000
202.90073	16.4000
202.95557	18.4000
203.01041	12.4000
203.06524	17.4000
203.12007	19.4000
203.17489	14.4000
203.22971	19.4000
203.28453	23.4000
203.33934	20.4000
203.39415	18.4000
203.44895	21.4000
203.50374	26.4000
203.55854	24.4000
203.61333	18.4000
203.66811	23.4000
203.72289	27.4000
203.77767	21.4000
203.83244	22.4000
203.88720	28.4000
203.94197	21.4000
203.99672	18.4000
204.05148	18.4000
204.10623	19.4000
204.16097	21.4000
204.21571	15.4000
204.27045	17.4000
204.32518	20.4000
204.37990	13.4000
204.43463	18.4000
204.48934	18.4000
204.54406	19.4000
204.59877	17.4000
204.65347	21.4000
204.70817	23.4000
204.76287	20.4000
204.81756	20.4000
204.87224	19.4000
204.92693	16.4000
204.98160	13.4000
205.03628	17.4000
205.09095	16.4000
205.14561	19.4000
205.20027	15.4000
205.25493	25.4000
205.30958	26.4000
205.36423	20.4000
205.41887	18.4000
205.47351	23.4000
205.52814	26.4000
205.58277	20.4000
205.63739	23.4000
205.69202	26.4000
205.74663	20.4000
205.80124	25.4000
205.85585	34.4000
205.91045	29.4000
205.96505	30.4000
206.01964	34.4000
206.07423	31.4000
206.12882	30.4000
206.18340	24.4000
206.23798	26.4000
206.29255	32.4000
206.34711	21.4000
206.40168	23.4000
206.45624	26.4000
206.51079	29.4000
206.56534	23.4000
206.61988	25.4000
206.67442	26.4000
206.72896	22.4000
206.78349	24.4000
206.83802	29.4000
206.89254	37.4000
206.94706	35.4000
207.00158	39.4000
207.05608	39.4000
207.11059	35.4000
207.16509	31.4000
207.21959	32.4000
207.27408	31.4000
207.32857	27.4000
207.38305	32.4000
207.43753	34.4000
207.49200	29.4000
207.54647	32.4000
207.60094	31.4000
207.65540	43.4000
207.70985	38.4000
207.76431	35.4000
207.81875	40.4000
207.87320	37.4000
207.92763	34.4000
207.98207	37.4000
208.03650	37.4000
208.09092	42.4000
208.14534	34.4000
208.19976	37.4000
208.25417	39.4000
208.30858	35.4000
208.36298	43.4000
208.41738	49.4000
208.47178	47.4000
208.52617	60.4000
208.58055	68.4000
208.63493	70.4000
208.68931	58.4000
208.74368	44.4000
208.79805	40.4000
208.85241	42.4000
208.90677	35.4000
208.96112	34.4000
209.01547	36.4000
209.06982	32.4000
209.12416	37.4000
209.17850	35.4000
209.23283	30.4000
209.28716	35.4000
209.34148	29.4000
209.39580	33.4000
209.45011	39.4000
209.50442	38.4000
209.55873	36.4000
209.61303	39.4000
209.66732	37.4000
209.72162	39.4000
209.77590	35.4000
209.83019	37.4000
209.88447	33.4000
209.93874	32.4000
209.99301	29.4000
210.04727	43.4000
210.10154	29.4000
210.15579	35.4000
210.21004	41.4000
210.26429	36.4000
210.31853	31.4000
210.37277	35.4000
210.42701	34.4000
210.48124	34.4000
210.53546	33.4000
210.58968	39.4000
210.64390	34.4000
210.69811	36.4000
210.75232	32.4000
210.80652	43.4000
210.86072	36.4000
210.91492	36.4000
210.96911	37.4000
211.02329	34.4000
211.07747	30.4000
211.13165	35.4000
211.18582	38.4000
211.23999	39.4000
211.29415	30.4000
211.34831	38.4000
211.40246	40.4000
211.45661	31.4000
211.51076	36.4000
211.56490	45.4000
211.61903	37.4000
211.67317	40.4000
211.72729	40.4000
211.78142	30.4000
211.83554	32.4000
211.88965	30.4000
211.94376	35.4000
211.99786	39.4000
212.05196	34.4000
212.10606	40.4000
212.16015	44.4000
212.21424	37.4000
212.26832	37.4000
212.32240	37.4000
212.37648	38.4000
212.43055	41.4000
212.48461	34.4000
212.53867	40.4000
212.59273	38.4000
212.64678	31.4000
212.70083	38.4000
212.75487	44.4000
212.80891	39.4000
212.86294	31.4000
212.91697	38.4000
212.97100	36.4000
213.02502	34.4000
213.07903	30.4000
213.13304	38.4000
213.18705	42.4000
213.24105	30.4000
213.29505	35.4000
213.34905	44.4000
213.40303	40.4000
213.45702	38.4000
213.51100	37.4000
213.56498	43.4000
213.61895	40.4000
213.67291	45.4000
213.72688	47.4000
213.78084	41.4000
213.83479	37.4000
213.88874	42.4000
213.94268	39.4000
213.99662	37.4000
214.05056	33.4000
214.10449	45.4000
214.15842	44.4000
214.21234	43.4000
214.26626	33.4000
214.32017	41.4000
214.37408	37.4000
214.42799	39.4000
214.48189	42.4000
214.53578	42.4000
214.58967	36.4000
214.64356	40.4000
214.69744	44.4000
214.75132	41.4000
214.80519	37.4000
214.85906	38.4000
214.91293	43.4000
214.96679	38.4000
215.02064	39.4000
215.07449	37.4000
215.12834	39.4000
215.18218	39.4000
215.23602	34.4000
215.28985	43.4000
215.34368	35.4000
215.39751	46.4000
215.45132	39.4000
215.50514	45.4000
215.55895	44.4000
215.61276	43.4000
215.66656	48.4000
215.72036	53.4000
215.77415	43.4000
215.82794	47.4000
215.88172	53.4000
215.93550	58.4000
215.98928	53.4000
216.04305	58.4000
216.09681	65.4000
216.15058	72.4000
216.20433	78.4000
216.25809	75.4000
216.31183	81.4000
216.36558	65.4000
216.41932	61.4000
216.47305	62.4000
216.52678	51.4000
216.58051	44.4000
216.63423	50.4000
216.68795	52.4000
216.74166	49.4000
216.79537	47.4000
216.84907	47.4000
216.90277	47.4000
216.95647	41.4000
217.01016	49.4000
217.06384	54.4000
217.11752	41.4000
217.17120	44.4000
217.22487	48.4000
217.27854	46.4000
217.33220	49.4000
217.38586	42.4000
217.43952	48.4000
217.49317	53.4000
217.54681	45.4000
217.60046	44.4000
217.65409	51.4000
217.70772	48.4000
217.76135	51.4000
217.81497	51.4000
217.86859	46.4000
217.92221	45.4000
217.97582	48.4000
218.02942	50.4000
218.08302	49.4000
218.13662	45.4000
218.19021	44.4000
218.24380	51.4000
218.29738	49.4000
218.35096	43.4000
218.40453	52.4000
218.45810	49.4000
218.51167	40.4000
218.56523	43.4000
218.61879	47.4000
218.67234	44.4000
218.72589	44.4000
218.77943	46.4000
218.83297	47.4000
218.88650	48.4000
218.94003	46.4000
218.99355	58.4000
219.04707	55.4000
219.10059	52.4000
219.15410	55.4000
219.20761	51.4000
219.26111	50.4000
219.31461	49.4000
219.36810	45.4000
219.42159	52.4000
219.47508	45.4000
219.52856	54.4000
219.58203	51.4000
219.63550	52.4000
219.68897	45.4000
219.74243	48.4000
219.79589	46.4000
219.84934	48.4000
219.90279	46.4000
219.95623	51.4000
220.00967	57.4000
220.06311	43.4000
220.11654	44.4000
220.16997	54.4000
220.22339	50.4000
220.27681	46.4000
220.33022	47.4000
220.38363	47.4000
220.43703	51.4000
220.49043	53.4000
220.54382	56.4000
220.59721	55.4000
220.65060	52.4000
220.70398	48.4000
220.75736	55.4000
220.81073	48.4000
220.86410	50.4000
220.91746	58.4000
220.97082	48.4000
221.02418	47.4000
221.07753	53.4000
221.13087	52.4000
221.18421	46.4000
221.23755	52.4000
221.29088	49.4000
221.34421	54.4000
221.39753	47.4000
221.45085	50.4000
221.50417	60.4000
221.55748	50.4000
221.61078	45.4000
221.66408	52.4000
221.71738	50.4000
221.77067	47.4000
221.82396	50.4000
221.87724	53.4000
221.93052	55.4000
221.98379	55.4000
222.03706	54.4000
222.09033	61.4000
222.14359	48.4000
222.19684	57.4000
222.25009	57.4000
222.30334	59.4000
222.35658	56.4000
222.40982	55.4000
222.46305	59.4000
222.51628	61.4000
222.56951	46.4000
222.62273	54.4000
222.67594	56.4000
222.72915	50.4000
222.78236	57.4000
222.83556	56.4000
222.88876	54.4000
222.94195	52.4000
222.99514	56.4000
223.04833	59.4000
223.10151	60.4000
223.15468	53.4000
223.20785	53.4000
223.26102	61.4000
223.31418	53.4000
223.36734	51.4000
223.42049	60.4000
223.47364	52.4000
223.52678	58.4000
223.57992	52.4000
223.63305	57.4000
223.68618	61.4000
223.73931	52.4000
223.79243	57.4000
223.84555	54.4000
223.89866	54.4000
223.95177	52.4000
224.00487	50.4000
224.05797	53.4000
224.11106	52.4000
224.16415	60.4000
224.21724	64.4000
224.27032	54.4000
224.32340	52.4000
224.37647	54.4000
224.42953	60.4000
224.48260	54.4000
224.53566	57.4000
224.58871	66.4000
224.64176	59.4000
224.69480	56.4000
224.74784	58.4000
224.80088	67.4000
224.85391	58.4000
224.90694	56.4000
224.95996	64.4000
225.01298	63.4000
225.06599	57.4000
225.11900	59.4000
225.17200	66.4000
225.22500	62.4000
225.27800	58.4000
225.33099	67.4000
225.38398	66.4000
225.43696	60.4000
225.48994	59.4000
225.54291	67.4000
225.59588	60.4000
225.64884	55.4000
225.70180	61.4000
225.75475	66.4000
225.80770	59.4000
225.86065	57.4000
225.91359	70.4000
225.96653	63.4000
226.01946	57.4000
226.07239	57.4000
226.12531	65.4000
226.17823	65.4000
226.23115	55.4000
226.28405	66.4000
226.33696	65.4000
226.38986	60.4000
226.44276	65.4000
226.49565	63.4000
226.54854	68.4000
226.60142	61.4000
226.65430	64.4000
226.70717	65.4000
226.76004	58.4000
226.81291	59.4000
226.86577	66.4000
226.91862	70.4000
226.97147	66.4000
227.02432	63.4000
227.07716	66.4000
227.13000	65.4000
227.18283	63.4000
227.23566	61.4000
227.28849	69.4000
227.34131	72.4000
227.39412	61.4000
227.44693	67.4000
227.49974	64.4000
227.55254	67.4000
227.60534	70.4000
227.65813	80.4000
227.71092	70.4000
227.76370	73.4000
227.81648	80.4000
227.86926	74.4000
227.92203	80.4000
227.97479	76.4000
228.02755	77.4000
228.08031	83.4000
228.13306	76.4000
228.18581	83.4000
228.23855	89.4000
228.29129	91.4000
228.34402	88.4000
228.39675	103.4000
228.44948	110.4000
228.50220	111.4000
228.55492	116.4000
228.60763	104.4000
228.66033	89.4000
228.71304	83.4000
228.76573	92.4000
228.81843	97.4000
228.87112	90.4000
228.92380	99.4000
228.97648	109.4000
229.02916	107.4000
229.08183	96.4000
229.13449	103.4000
229.18716	107.4000
229.23981	133.4000
229.29247	130.4000
229.34512	123.4000
229.39776	115.4000
229.45040	109.4000
229.50303	100.4000
229.55566	92.4000
229.60829	82.4000
229.66091	78.4000
229.71353	80.4000
229.76614	79.4000
229.81875	76.4000
229.87135	80.4000
229.92395	83.4000
229.97654	82.4000
230.02913	87.4000
230.08172	83.4000
230.13430	89.4000
230.18688	80.4000
230.23945	80.4000
230.29202	76.4000
230.34458	82.4000
230.39714	77.4000
230.44969	77.4000
230.50224	76.4000
230.55478	86.4000
230.60732	85.4000
230.65986	88.4000
230.71239	87.4000
230.76492	80.4000
230.81744	76.4000
230.86996	87.4000
230.92247	79.4000
230.97498	79.4000
231.02748	75.4000
231.07998	82.4000
231.13248	77.4000
231.18497	71.4000
231.23745	70.4000
231.28993	80.4000
231.34241	74.4000
231.39488	78.4000
231.44735	82.4000
231.49981	89.4000
231.55227	100.4000
231.60473	103.4000
231.65718	94.4000
231.70962	93.4000
231.76206	81.4000
231.81450	90.4000
231.86693	91.4000
231.91936	82.4000
231.97178	81.4000
232.02420	87.4000
232.07661	85.4000
232.12902	78.4000
232.18142	84.4000
232.23382	88.4000
232.28622	96.4000
232.33861	101.4000
232.39100	109.4000
232.44338	105.4000
232.49576	82.4000
232.54813	84.4000
232.60050	94.4000
232.65286	85.4000
232.70522	79.4000
232.75758	88.4000
232.80993	90.4000
232.86227	104.4000
232.91461	106.4000
232.96695	104.4000
233.01928	103.4000
233.07161	93.4000
233.12393	86.4000
233.17625	96.4000
233.22856	81.4000
233.28087	78.4000
233.33318	84.4000
233.38548	82.4000
233.43777	84.4000
233.49007	82.4000
233.54235	81.4000
233.59464	87.4000
233.64691	79.4000
233.69919	77.4000
233.75146	86.4000
233.80372	87.4000
233.85598	82.4000
233.90823	87.4000
233.96049	91.4000
234.01273	84.4000
234.06497	87.4000
234.11721	82.4000
234.16944	84.4000
234.22167	81.4000
234.27389	82.4000
234.32611	83.4000
234.37833	90.4000
234.43054	83.4000
234.48274	86.4000
234.53494	82.4000
234.58714	82.4000
234.63933	88.4000
234.69152	84.4000
234.74370	82.4000
234.79588	79.4000
234.84805	80.4000
234.90022	94.4000
234.95239	91.4000
235.00455	85.4000
235.05670	96.4000
235.10885	90.4000
235.16100	87.4000
235.21314	97.4000
235.26528	87.4000
235.31741	90.4000
235.36954	85.4000
235.42166	91.4000
235.47378	95.4000
235.52590	100.4000
235.57801	112.4000
235.63011	129.4000
235.68221	119.4000
235.73431	98.4000
235.78640	97.4000
235.83849	103.4000
235.89057	89.4000
235.94265	86.4000
235.99473	91.4000
236.04680	95.4000
236.09886	86.4000
236.15092	87.4000
236.20298	98.4000
236.25503	93.4000
236.30707	91.4000
236.35912	95.4000
236.41115	105.4000
236.46319	96.4000
236.51522	91.4000
236.56724	97.4000
236.61926	92.4000
236.67127	86.4000
236.72328	85.4000
236.77529	96.4000
236.82729	93.4000
236.87929	87.4000
236.93128	92.4000
236.98327	96.4000
237.03525	96.4000
237.08723	96.4000
237.13920	113.4000
237.19117	111.4000
237.24314	95.4000
237.29510	90.4000
237.34705	92.4000
237.39901	84.4000
237.45095	92.4000
237.50290	89.4000
237.55483	96.4000
237.60677	93.4000
237.65869	91.4000
237.71062	90.4000
237.76254	88.4000
237.81445	80.4000
237.86636	85.4000
237.91827	93.4000
237.97017	81.4000
238.02207	94.4000
238.07396	103.4000
238.12585	99.4000
238.17773	95.4000
238.22961	93.4000
238.28148	93.4000
238.33335	95.4000
238.38522	95.4000
238.43708	100.4000
238.48894	97.4000
238.54079	105.4000
238.59263	115.4000
238.64448	114.4000
238.69631	116.4000
238.74815	111.4000
238.79998	115.4000
238.85180	126.4000
238.90362	122.4000
238.95543	105.4000
239.00725	98.4000
239.05905	104.4000
239.11085	103.4000
239.16265	103.4000
239.21444	111.4000
239.26623	102.4000
239.31801	101.4000
239.36979	101.4000
239.42157	96.4000
239.47334	101.4000
239.52510	96.4000
239.57686	95.4000
239.62862	100.4000
239.68037	97.4000
239.73212	100.4000
239.78386	96.4000
239.83560	100.4000
239.88733	99.4000
239.93906	106.4000
239.99078	103.4000
240.04250	101.4000
240.09422	108.4000
240.14593	109.4000
240.19763	114.4000
240.24933	117.4000
240.30103	131.4000
240.35272	156.4000
240.40441	179.4000
240.45609	189.4000
240.50777	196.4000
240.55945	171.4000
240.61112	141.4000
240.66278	130.4000
240.71444	116.4000
240.76610	105.4000
240.81775	103.4000
240.86940	104.4000
240.92104	116.4000
240.97268	108.4000
241.02431	105.4000
241.07594	115.4000
241.12756	101.4000
241.17918	97.4000
241.23080	111.4000
241.28241	112.4000
241.33401	112.4000
241.38561	109.4000
241.43721	108.4000
241.48880	109.4000
241.54039	101.4000
241.59197	113.4000
241.64355	118.4000
241.69512	124.4000
241.74669	126.4000
241.79826	147.4000
241.84982	156.4000
241.90137	164.4000
241.95293	161.4000
242.00447	152.4000
242.05601	136.4000
242.10755	118.4000
242.15908	114.4000
242.21061	118.4000
242.26214	117.4000
242.31366	107.4000
242.36517	115.4000
242.41668	120.4000
242.46819	107.4000
242.51969	107.4000
242.57118	108.4000
242.62267	112.4000
242.67416	105.4000
242.72564	107.4000
242.77712	114.4000
242.82860	116.4000
242.88007	108.4000
242.93153	112.4000
242.98299	109.4000
243.03445	106.4000
243.08590	119.4000
243.13734	115.4000
243.18878	110.4000
243.24022	115.4000
243.29165	119.4000
243.34308	116.4000
243.39451	118.4000
243.44592	109.4000
243.49734	116.4000
243.54875	119.4000
243.60015	122.4000
243.65155	111.4000
243.70295	118.4000
243.75434	120.4000
243.80573	128.4000
243.85711	127.4000
243.90849	129.4000
243.95986	121.4000
244.01123	133.4000
244.06259	147.4000
244.11395	147.4000
244.16531	146.4000
244.21666	167.4000
244.26801	190.4000
244.31935	200.4000
244.37068	194.4000
244.42202	182.4000
244.47334	171.4000
244.52467	167.4000
244.57599	167.4000
244.62730	205.4000
244.67861	243.4000
244.72991	276.4000
244.78121	289.4000
244.83251	279.4000
244.88380	224.4000
244.93509	191.4000
244.98637	158.4000
245.03765	150.4000
245.08892	120.4000
245.14019	123.4000
245.19145	132.4000
245.24271	128.4000
245.29396	125.4000
245.34521	130.4000
245.39646	128.4000
245.44770	125.4000
245.49894	149.4000
245.55017	183.4000
245.60140	204.4000
245.65262	184.4000
245.70384	161.4000
245.75505	129.4000
245.80626	125.4000
245.85746	120.4000
245.90866	126.4000
245.95986	118.4000
246.01105	114.4000
246.06223	110.4000
246.11342	113.4000
246.16459	105.4000
246.21576	97.4000
246.26693	102.4000
246.31810	109.4000
246.36925	105.4000
246.42041	104.4000
246.47156	111.4000
246.52270	110.4000
246.57384	106.4000
246.62498	108.4000
246.67611	106.4000
246.72724	109.4000
246.77836	102.4000
246.82948	107.4000
246.88059	112.4000
246.93170	105.4000
246.98280	111.4000
247.03390	109.4000
247.08499	111.4000
247.13608	102.4000
247.18717	112.4000
247.23825	104.4000
247.28933	103.4000
247.34040	98.4000
247.39147	108.4000
247.44253	106.4000
247.49359	100.4000
247.54464	102.4000
247.59569	116.4000
247.64673	102.4000
247.69777	103.4000
247.74881	106.4000
247.79984	106.4000
247.85086	104.4000
247.90188	97.4000
247.95290	116.4000
248.00391	116.4000
248.05492	101.4000
248.10592	109.4000
248.15692	113.4000
248.20792	101.4000
248.25891	107.4000
248.30989	103.4000
248.36087	111.4000
248.41185	109.4000
248.46282	105.4000
248.51378	115.4000
248.56474	123.4000
248.61570	117.4000
248.66665	117.4000
248.71760	118.4000
248.76855	108.4000
248.81948	116.4000
248.87042	115.4000
248.92135	105.4000
248.97227	110.4000
249.02319	110.4000
249.07411	107.4000
249.12502	106.4000
249.17593	102.4000
249.22683	110.4000
249.27773	121.4000
249.32862	116.4000
249.37951	103.4000
249.43039	110.4000
249.48127	118.4000
249.53215	118.4000
249.58302	115.4000
249.63388	112.4000
249.68474	118.4000
249.73560	111.4000
249.78645	114.4000
249.83730	116.4000
249.88814	111.4000
249.93898	116.4000
249.98981	108.4000
250.04064	104.4000
250.09147	110.4000
250.14229	104.4000
250.19310	108.4000
250.24391	104.4000
250.29472	116.4000
250.34552	112.4000
250.39632	111.4000
250.44711	115.4000
250.49790	110.4000
250.54868	106.4000
250.59946	108.4000
250.65023	109.4000
250.70100	108.4000
250.75177	120.4000
250.80253	108.4000
250.85328	112.4000
250.90403	118.4000
250.95478	109.4000
251.00552	108.4000
251.05626	112.4000
251.10699	117.4000
251.15772	102.4000
251.20844	106.4000
251.25916	114.4000
251.30987	112.4000
251.36058	104.4000
251.41129	107.4000
251.46199	112.4000
251.51269	109.4000
251.56338	114.4000
251.61406	118.4000
251.66475	119.4000
251.71542	106.4000
251.76610	114.4000
251.81676	117.4000
251.86743	108.4000
251.91809	110.4000
251.96874	114.4000
252.01939	118.4000
252.07004	120.4000
252.12068	106.4000
252.17131	115.4000
252.22194	118.4000
252.27257	108.4000
252.32319	109.4000
252.37381	117.4000
252.42442	117.4000
252.47503	111.4000
252.52564	117.4000
252.57624	112.4000
252.62683	112.4000
252.67742	111.4000
252.72801	116.4000
252.77859	120.4000
252.82916	115.4000
252.87974	120.4000
252.93030	123.4000
252.98087	121.4000
253.03142	125.4000
253.08198	144.4000
253.13253	147.4000
253.18307	141.4000
253.23361	129.4000
253.28415	121.4000
253.33468	124.4000
253.38520	116.4000
253.43572	123.4000
253.48624	135.4000
253.53675	120.4000
253.58726	117.4000
253.63776	120.4000
253.68826	120.4000
253.73875	120.4000
253.78924	109.4000
253.83973	116.4000
253.89021	122.4000
253.94068	124.4000
253.99115	137.4000
254.04162	161.4000
254.09208	159.4000
254.14254	149.4000
254.19299	143.4000
254.24344	121.4000
254.29388	120.4000
254.34432	122.4000
254.39475	128.4000
254.44518	130.4000
254.49561	116.4000
254.54603	116.4000
254.59644	110.4000
254.64685	117.4000
254.69726	116.4000
254.74766	118.4000
254.79806	121.4000
254.84845	122.4000
254.89884	158.4000
254.94922	166.4000
254.99960	160.4000
255.04997	127.4000
255.10034	121.4000
255.15071	123.4000
255.20107	122.4000
255.25142	115.4000
255.30178	120.4000
255.35212	112.4000
255.40246	118.4000
255.45280	115.4000
255.50313	106.4000
255.55346	114.4000
255.60378	114.4000
255.65410	109.4000
255.70442	117.4000
255.75473	108.4000
255.80503	110.4000
255.85533	121.4000
255.90563	121.4000
255.95592	116.4000
256.00621	119.4000
256.05649	115.4000
256.10676	113.4000
256.15704	116.4000
256.20731	121.4000
256.25757	129.4000
256.30783	124.4000
256.35808	125.4000
256.40833	137.4000
256.45858	137.4000
256.50882	158.4000
256.55905	203.4000
256.60928	267.4000
256.65951	305.4000
256.70973	377.4000
256.75995	396.4000
256.81016	361.4000
256.86037	286.4000
256.91057	269.4000
256.96077	357.4000
257.01097	433.4000
257.06116	395.4000
257.11134	309.4000
257.16152	201.4000
257.21170	163.4000
257.26187	147.4000
257.31204	144.4000
257.36220	128.4000
257.41236	129.4000
257.46251	132.4000
257.51266	128.4000
257.56280	127.4000
257.61294	119.4000
257.66307	126.4000
257.71320	123.4000
257.76333	121.4000
257.81345	127.4000
257.86357	130.4000
257.91368	121.4000
257.96378	127.4000
258.01389	122.4000
258.06398	123.4000
258.11408	127.4000
258.16416	133.4000
258.21425	143.4000
258.26433	138.4000
258.31440	124.4000
258.36447	127.4000
258.41454	125.4000
258.46460	128.4000
258.51465	128.4000
258.56470	132.4000
258.61475	134.4000
258.66479	121.4000
258.71483	140.4000
258.76486	154.4000
258.81489	149.4000
258.86492	153.4000
258.91493	147.4000
258.96495	147.4000
259.01496	150.4000
259.06496	173.4000
259.11496	204.4000
259.16496	227.4000
259.21495	254.4000
259.26494	260.4000
259.31492	238.4000
259.36490	200.4000
259.41487	170.4000
259.46484	157.4000
259.51480	147.4000
259.56476	141.4000
259.61471	134.4000
259.66466	134.4000
259.71461	141.4000
259.76455	131.4000
259.81449	126.4000
259.86442	140.4000
259.91434	125.4000
259.96427	131.4000
260.01418	137.4000
260.06410	120.4000
260.11400	125.4000
260.16391	125.4000
260.21381	130.4000
260.26370	129.4000
260.31359	128.4000
260.36348	130.4000
260.41336	127.4000
260.46323	127.4000
260.51310	133.4000
260.56297	136.4000
260.61283	124.4000
260.66269	133.4000
260.71254	143.4000
260.76239	136.4000
260.81223	142.4000
260.86207	148.4000
260.91190	140.4000
260.96173	142.4000
261.01156	132.4000
261.06138	139.4000
261.11120	145.4000
261.16101	141.4000
261.21081	136.4000
261.26061	151.4000
261.31041	156.4000
261.36020	161.4000
261.40999	168.4000
261.45977	165.4000
261.50955	179.4000
261.55933	184.4000
261.60910	197.4000
261.65886	216.4000
261.70862	226.4000
261.75838	259.4000
261.80813	321.4000
261.85787	397.4000
261.90762	460.4000
261.95735	457.4000
262.00709	412.4000
262.05681	341.4000
262.10654	278.4000
262.15625	244.4000
262.20597	224.4000
262.25568	202.4000
262.30538	184.4000
262.35508	185.4000
262.40478	182.4000
262.45447	182.4000
262.50415	180.4000
262.55384	185.4000
262.60351	220.4000
262.65318	231.4000
262.70285	241.4000
262.75251	240.4000
262.80217	211.4000
262.85183	195.4000
262.90148	202.4000
262.95112	210.4000
263.00076	206.4000
263.05039	184.4000
263.10002	165.4000
263.14965	163.4000
263.19927	152.4000
263.24889	147.4000
263.29850	162.4000
263.34811	149.4000
263.39771	146.4000
263.44731	146.4000
263.49690	150.4000
263.54649	145.4000
263.59607	151.4000
263.64565	148.4000
263.69523	159.4000
263.74480	175.4000
263.79436	178.4000
263.84393	188.4000
263.89348	172.4000
263.94303	176.4000
263.99258	189.4000
264.04212	201.4000
264.09166	219.4000
264.14119	267.4000
264.19072	307.4000
264.24025	337.4000
264.28976	317.4000
264.33928	297.4000
264.38879	244.4000
264.43829	201.4000
264.48780	187.4000
264.53729	179.4000
264.58678	166.4000
264.63627	162.4000
264.68575	151.4000
264.73523	159.4000
264.78470	153.4000
264.83417	150.4000
264.88363	165.4000
264.93309	160.4000
264.98255	154.4000
265.03200	155.4000
265.08144	149.4000
265.13088	147.4000
265.18032	160.4000
265.22975	160.4000
265.27917	161.4000
265.32860	167.4000
265.37801	189.4000
265.42743	225.4000
265.47683	263.4000
265.52624	263.4000
265.57564	246.4000
265.62503	225.4000
265.67442	195.4000
265.72380	178.4000
265.77318	166.4000
265.82256	156.4000
265.87193	160.4000
265.92130	163.4000
265.97066	168.4000
266.02001	180.4000
266.06937	182.4000
266.11871	214.4000
266.16806	234.4000
266.21739	275.4000
266.26673	317.4000
266.31606	335.4000
266.36538	321.4000
266.41470	273.4000
266.46402	233.4000
266.51333	206.4000
266.56263	191.4000
266.61193	194.4000
266.66123	198.4000
266.71052	186.4000
266.75981	172.4000
266.80909	165.4000
266.85837	165.4000
266.90764	163.4000
266.95691	156.4000
267.00617	161.4000
267.05543	156.4000
267.10469	150.4000
267.15394	151.4000
267.20318	150.4000
267.25242	148.4000
267.30166	140.4000
267.35089	143.4000
267.40012	155.4000
267.44934	158.4000
267.49856	156.4000
267.54777	176.4000
267.59698	173.4000
267.64618	220.4000
267.69538	325.4000
267.74457	373.4000
267.79376	373.4000
267.84295	302.4000
267.89213	255.4000
267.94130	254.4000
267.99047	280.4000
268.03964	321.4000
268.08880	359.4000
268.13796	336.4000
268.18711	289.4000
268.23626	260.4000
268.28540	231.4000
268.33454	222.4000
268.38367	217.4000
268.43280	245.4000
268.48193	255.4000
268.53105	257.4000
268.58016	235.4000
268.62927	208.4000
268.67838	203.4000
268.72748	202.4000
268.77657	211.4000
268.82567	232.4000
268.87475	246.4000
268.92384	259.4000
268.97291	257.4000
269.02199	249.4000
269.07106	225.4000
269.12012	211.4000
269.16918	211.4000
269.21823	220.4000
269.26728	218.4000
269.31633	209.4000
269.36537	188.4000
269.41440	178.4000
269.46344	176.4000
269.51246	176.4000
269.56148	192.4000
269.61050	199.4000
269.65951	212.4000
269.70852	234.4000
269.75752	238.4000
269.80652	259.4000
269.85552	303.4000
269.90451	305.4000
269.95349	267.4000
270.00247	208.4000
270.05145	175.4000
270.10042	159.4000
270.14938	137.4000
270.19834	145.4000
270.24730	150.4000
270.29625	135.4000
270.34520	127.4000
270.39414	135.4000
270.44308	133.4000
270.49201	130.4000
270.54094	131.4000
270.58987	146.4000
270.63879	143.4000
270.68770	152.4000
270.73661	170.4000
270.78552	173.4000
270.83442	177.4000
270.88331	169.4000
270.93221	163.4000
270.98109	174.4000
271.02997	170.4000
271.07885	179.4000
271.12772	182.4000
271.17659	169.4000
271.22546	167.4000
271.27432	180.4000
271.32317	189.4000
271.37202	183.4000
271.42086	181.4000
271.46970	185.4000
271.51854	173.4000
271.56737	167.4000
271.61620	152.4000
271.66502	141.4000
271.71383	123.4000
271.76265	135.4000
271.81145	154.4000
271.86026	178.4000
271.90905	179.4000
271.95785	178.4000
272.00664	184.4000
272.05542	207.4000
272.10420	261.4000
272.15298	288.4000
272.20175	267.4000
272.25051	207.4000
272.29927	160.4000
272.34803	148.4000
272.39678	150.4000
272.44553	162.4000
272.49427	207.4000
272.54301	232.4000
272.59174	210.4000
272.64047	167.4000
272.68919	146.4000
272.73791	135.4000
272.78662	125.4000
272.83533	130.4000
272.88404	132.4000
272.93274	129.4000
272.98143	124.4000
273.03012	141.4000
273.07881	162.4000
273.12749	192.4000
273.17617	205.4000
273.22484	207.4000
273.27351	219.4000
273.32217	273.4000
273.37083	326.4000
273.41948	343.4000
273.46813	299.4000
273.51677	247.4000
273.56541	209.4000
273.61405	189.4000
273.66268	153.4000
273.71130	146.4000
273.75993	143.4000
273.80854	143.4000
273.85715	155.4000
273.90576	165.4000
273.95436	173.4000
274.00296	186.4000
274.05155	209.4000
274.10014	256.4000
274.14872	267.4000
274.19730	236.4000
274.24588	191.4000
274.29444	157.4000
274.34301	146.4000
274.39157	168.4000
274.44012	202.4000
274.48867	213.4000
274.53722	204.4000
274.58576	161.4000
274.63430	141.4000
274.68283	139.4000
274.73136	127.4000
274.77988	125.4000
274.82840	137.4000
274.87691	126.4000
274.92542	138.4000
274.97392	144.4000
275.02242	171.4000
275.07092	220.4000
275.11941	225.4000
275.16789	221.4000
275.21637	187.4000
275.26485	158.4000
275.31332	132.4000
275.36179	133.4000
275.41025	128.4000
275.45870	111.4000
275.50716	121.4000
275.55560	116.4000
275.60405	120.4000
275.65249	120.4000
275.70092	151.4000
275.74935	168.4000
275.79777	168.4000
275.84619	158.4000
275.89461	129.4000
275.94302	129.4000
275.99142	119.4000
276.03982	127.4000
276.08822	121.4000
276.13661	116.4000
276.18500	119.4000
276.23338	104.4000
276.28176	108.4000
276.33013	101.4000
276.37850	102.4000
276.42686	109.4000
276.47522	108.4000
276.52357	99.4000
276.57192	105.4000
276.62027	110.4000
276.66861	110.4000
276.71694	121.4000
276.76527	139.4000
276.81360	133.4000
276.86192	119.4000
276.91024	109.4000
276.95855	111.4000
277.00686	101.4000
277.05516	103.4000
277.10346	110.4000
277.15175	107.4000
277.20004	107.4000
277.24832	121.4000
277.29660	137.4000
277.34488	136.4000
277.39315	129.4000
277.44141	118.4000
277.48967	120.4000
277.53793	114.4000
277.58618	110.4000
277.63442	113.4000
277.68267	105.4000
277.73090	100.4000
277.77914	95.4000
277.82736	106.4000
277.87559	103.4000
277.92380	94.4000
277.97202	100.4000
278.02023	99.4000
278.06843	90.4000
278.11663	93.4000
278.16482	100.4000
278.21301	105.4000
278.26120	103.4000
278.30938	101.4000
278.35756	104.4000
278.40573	103.4000
278.45389	111.4000
278.50206	105.4000
278.55021	113.4000
278.59837	114.4000
278.64651	120.4000
278.69466	115.4000
278.74279	110.4000
278.79093	108.4000
278.83906	110.4000
278.88718	114.4000
278.93530	107.4000
278.98342	110.4000
279.03153	110.4000
279.07963	109.4000
279.12773	100.4000
279.17583	107.4000
279.22392	114.4000
279.27201	104.4000
279.32009	102.4000
279.36817	116.4000
279.41624	110.4000
279.46431	112.4000
279.51237	120.4000
279.56043	135.4000
279.60848	144.4000
279.65653	142.4000
279.70458	123.4000
279.75262	125.4000
279.80065	123.4000
279.84868	122.4000
279.89671	121.4000
279.94473	104.4000
279.99275	102.4000
280.04076	97.4000
280.08876	100.4000
280.13677	103.4000
280.18476	101.4000
280.23276	100.4000
280.28075	96.4000
280.32873	93.4000
280.37671	97.4000
280.42468	105.4000
280.47265	95.4000
280.52062	115.4000
280.56858	117.4000
280.61653	120.4000
280.66448	121.4000
280.71243	115.4000
280.76037	112.4000
280.80830	114.4000
280.85624	107.4000
280.90416	109.4000
280.95209	141.4000
281.00000	134.4000
281.04792	124.4000
281.09582	115.4000
281.14373	111.4000
281.19163	108.4000
281.23952	97.4000
281.28741	100.4000
281.33530	100.4000
281.38318	99.4000
281.43105	97.4000
281.47892	106.4000
281.52679	97.4000
281.57465	99.4000
281.62251	111.4000
281.67036	120.4000
281.71820	150.4000
281.76605	169.4000
281.81388	165.4000
281.86172	147.4000
281.90955	123.4000
281.95737	116.4000
282.00519	108.4000
282.05300	109.4000
282.10081	102.4000
282.14862	110.4000
282.19642	106.4000
282.24421	103.4000
282.29200	95.4000
282.33979	109.4000
282.38757	137.4000
282.43535	155.4000
282.48312	152.4000
282.53089	146.4000
282.57865	122.4000
282.62641	117.4000
282.67416	119.4000
282.72191	113.4000
282.76965	108.4000
282.81739	107.4000
282.86512	104.4000
282.91285	98.4000
282.96058	99.4000
283.00830	97.4000
283.05601	103.4000
283.10373	97.4000
283.15143	102.4000
283.19913	114.4000
283.24683	116.4000
283.29452	122.4000
283.34221	122.4000
283.38989	134.4000
283.43757	129.4000
283.48524	132.4000
283.53291	130.4000
283.58057	125.4000
283.62823	111.4000
283.67589	114.4000
283.72354	113.4000
283.77118	105.4000
283.81882	110.4000
283.86646	113.4000
283.91409	108.4000
283.96171	103.4000
284.00933	93.4000
284.05695	97.4000
284.10456	102.4000
284.15217	97.4000
284.19977	118.4000
284.24737	149.4000
284.29496	173.4000
284.34255	217.4000
284.39013	211.4000
284.43771	166.4000
284.48529	142.4000
284.53285	109.4000
284.58042	105.4000
284.62798	109.4000
284.67553	114.4000
284.72309	118.4000
284.77063	120.4000
284.81817	101.4000
284.86571	98.4000
284.91324	107.4000
284.96077	118.4000
285.00829	119.4000
285.05581	156.4000
285.10332	167.4000
285.15083	155.4000
285.19833	125.4000
285.24583	117.4000
285.29332	106.4000
285.34081	106.4000
285.38830	101.4000
285.43578	99.4000
285.48325	100.4000
285.53072	93.4000
285.57819	92.4000
285.62565	88.4000
285.67310	92.4000
285.72056	91.4000
285.76800	89.4000
285.81544	94.4000
285.86288	93.4000
285.91031	100.4000
285.95774	109.4000
286.00516	91.4000
286.05258	94.4000
286.10000	89.4000
286.14741	89.4000
286.19481	83.4000
286.24221	91.4000
286.28960	86.4000
286.33699	96.4000
286.38438	88.4000
286.43176	95.4000
286.47914	101.4000
286.52651	104.4000
286.57387	94.4000
286.62124	97.4000
286.66859	102.4000
286.71594	113.4000
286.76329	114.4000
286.81064	138.4000
286.85797	164.4000
286.90531	159.4000
286.95264	139.4000
286.99996	122.4000
287.04728	95.4000
287.09459	84.4000
287.14190	86.4000
287.18921	84.4000
287.23651	75.4000
287.28380	79.4000
287.33109	80.4000
287.37838	85.4000
287.42566	85.4000
287.47294	87.4000
287.52021	97.4000
287.56748	85.4000
287.61474	84.4000
287.66200	95.4000
287.70925	92.4000
287.75650	78.4000
287.80374	81.4000
287.85098	75.4000
287.89822	80.4000
287.94545	82.4000
287.99267	78.4000
288.03989	86.4000
288.08711	82.4000
288.13432	83.4000
288.18152	85.4000
288.22872	91.4000
288.27592	89.4000
288.32311	99.4000
288.37030	105.4000
288.41748	105.4000
288.46466	93.4000
288.51183	89.4000
288.55900	93.4000
288.60616	89.4000
288.65332	88.4000
288.70047	96.4000
288.74762	89.4000
288.79477	80.4000
288.84191	84.4000
288.88904	82.4000
288.93617	76.4000
288.98330	67.4000
289.03042	79.4000
289.07753	75.4000
289.12464	73.4000
289.17175	71.4000
289.21885	78.4000
289.26595	74.4000
289.31304	68.4000
289.36013	79.4000
289.40721	83.4000
289.45429	81.4000
289.50136	85.4000
289.54843	84.4000
289.59550	80.4000
289.64256	72.4000
289.68961	74.4000
289.73666	87.4000
289.78370	82.4000
289.83074	79.4000
289.87778	78.4000
289.92481	81.4000
289.97184	77.4000
290.01886	81.4000
290.06587	91.4000
290.11289	89.4000
290.15989	89.4000
290.20690	87.4000
290.25389	101.4000
290.30089	101.4000
290.34787	104.4000
290.39486	109.4000
290.44184	115.4000
290.48881	108.4000
290.53578	91.4000
290.58274	97.4000
290.62970	79.4000
290.67666	72.4000
290.72361	90.4000
290.77055	81.4000
290.81749	75.4000
290.86443	73.4000
290.91136	84.4000
290.95829	88.4000
291.00521	81.4000
291.05213	78.4000
291.09904	74.4000
291.14595	71.4000
291.19285	73.4000
291.23975	66.4000
291.28664	71.4000
291.33353	67.4000
291.38041	65.4000
291.42729	76.4000
291.47417	96.4000
291.52104	117.4000
291.56790	106.4000
291.61476	104.4000
291.66162	92.4000
291.70847	104.4000
291.75531	106.4000
291.80215	104.4000
291.84899	81.4000
291.89582	75.4000
291.94265	78.4000
291.98947	70.4000
292.03629	67.4000
292.08310	65.4000
292.12991	70.4000
292.17671	61.4000
292.22351	65.4000
292.27031	69.4000
292.31709	72.4000
292.36388	76.4000
292.41066	77.4000
292.45743	79.4000
292.50420	85.4000
292.55097	102.4000
292.59773	134.4000
292.64448	133.4000
292.69124	118.4000
292.73798	104.4000
292.78472	87.4000
292.83146	81.4000
292.87819	72.4000
292.92492	71.4000
292.97164	76.4000
293.01836	73.4000
293.06507	70.4000
293.11178	83.4000
293.15848	77.4000
293.20518	70.4000
293.25188	67.4000
293.29857	75.4000
293.34525	70.4000
293.39193	75.4000
293.43861	78.4000
293.48528	72.4000
293.53194	83.4000
293.57860	73.4000
293.62526	73.4000
293.67191	74.4000
293.71856	57.4000
293.76520	64.4000
293.81184	63.4000
293.85847	56.4000
293.90510	60.4000
293.95172	56.4000
293.99834	58.4000
294.04495	56.4000
294.09156	54.4000
294.13816	62.4000
294.18476	55.4000
294.23136	53.4000
294.27795	54.4000
294.32453	58.4000
294.37111	55.4000
294.41769	49.4000
294.46426	60.4000
294.51082	57.4000
294.55738	56.4000
294.60394	60.4000
294.65049	60.4000
294.69704	60.4000
294.74358	66.4000
294.79012	84.4000
294.83665	82.4000
294.88318	74.4000
294.92970	64.4000
294.97622	66.4000
295.02273	76.4000
295.06924	64.4000
295.11574	68.4000
295.16224	72.4000
295.20874	64.4000
295.25523	53.4000
295.30171	69.4000
295.34819	59.4000
295.39467	62.4000
295.44114	85.4000
295.48761	107.4000
295.53407	109.4000
295.58052	77.4000
295.62697	81.4000
295.67342	72.4000
295.71986	54.4000
295.76630	55.4000
295.81273	59.4000
295.85916	58.4000
295.90558	51.4000
295.95200	54.4000
295.99842	59.4000
296.04483	55.4000
296.09123	49.4000
296.13763	68.4000
296.18402	75.4000
296.23041	69.4000
296.27680	58.4000
296.32318	64.4000
296.36955	54.4000
296.41593	44.4000
296.46229	53.4000
296.50865	54.4000
296.55501	56.4000
296.60136	46.4000
296.64771	45.4000
296.69405	56.4000
296.74039	49.4000
296.78672	72.4000
296.83305	86.4000
296.87937	82.4000
296.92569	76.4000
296.97200	63.4000
297.01831	69.4000
297.06462	55.4000
297.11092	56.4000
297.15721	52.4000
297.20350	56.4000
297.24978	49.4000
297.29606	49.4000
297.34234	51.4000
297.38861	50.4000
297.43488	46.4000
297.48114	49.4000
297.52739	49.4000
297.57365	55.4000
297.61989	57.4000
297.66614	60.4000
297.71237	66.4000
297.75861	69.4000
297.80483	65.4000
297.85106	78.4000
297.89727	67.4000
297.94349	62.4000
297.98970	68.4000
298.03590	61.4000
298.08210	58.4000
298.12829	44.4000
298.17448	50.4000
298.22067	48.4000
298.26685	47.4000
298.31303	43.4000
298.35920	53.4000
298.40536	46.4000
298.45152	47.4000
298.49768	43.4000
298.54383	44.4000
298.58998	49.4000
298.63612	46.4000
298.68226	53.4000
298.72839	45.4000
298.77452	42.4000
298.82064	43.4000
298.86676	54.4000
298.91287	43.4000
298.95898	42.4000
299.00508	45.4000
299.05118	38.4000
299.09728	46.4000
299.14337	39.4000
299.18945	40.4000
299.23553	44.4000
299.28161	35.4000
299.32768	40.4000
299.37374	40.4000
299.41980	36.4000
299.46586	35.4000
299.51191	41.4000
299.55796	35.4000
299.60400	33.4000
299.65004	37.4000
299.69607	31.4000
299.74210	35.4000
299.78812	32.4000
299.83414	35.4000
299.88015	33.4000
299.92616	31.4000
299.97216	27.4000
300.01816	37.4000
300.06416	29.4000
300.11015	27.4000
300.15613	37.4000
300.20211	27.4000
300.24809	33.4000
300.29406	38.4000
300.34002	43.4000
300.38598	39.4000
300.43194	29.4000
300.47789	30.4000
300.52383	34.4000
300.56978	26.4000
300.61571	21.4000
300.66165	27.4000
300.70757	24.4000
300.75349	29.4000
300.79941	21.4000
300.84533	25.4000
300.89123	29.4000
300.93714	22.4000
300.98304	19.4000
301.02893	25.4000
301.07482	16.4000
301.12070	17.4000
301.16658	23.4000
301.21246	21.4000
301.25833	13.4000
301.30419	15.4000
301.35005	19.4000
301.39591	17.4000
301.44176	11.4000
301.48760	11.4000
301.53345	15.4000
301.57928	7.4000
301.62511	11.4000
301.67094	12.4000
301.71676	14.4000
301.76258	7.4000
301.80839	5.4000
301.85420	13.4000
301.90000	8.4000
301.94580	9.4000
301.99159	10.4000
302.03738	11.4000
302.08317	6.4000
302.12895	4.4000
302.17472	11.4000
302.22049	6.4000
302.28494	245.3000
302.33654	244.3000
302.38814	251.3000
302.43972	260.3000
302.49131	273.3000
302.54288	310.3000
302.59445	392.3000
302.64602	393.3000
302.69758	322.3000
302.74913	282.3000
302.80068	266.3000
302.85223	264.3000
302.90376	279.3000
302.95530	244.3000
303.00682	226.3000
303.05834	224.3000
303.10986	212.3000
303.16137	207.3000
303.21287	210.3000
303.26437	209.3000
303.31586	225.3000
303.36735	263.3000
303.41883	334.3000
303.47030	339.3000
303.52177	277.3000
303.57324	235.3000
303.62470	227.3000
303.67615	211.3000
303.72760	211.3000
303.77904	212.3000
303.83048	204.3000
303.88191	203.3000
303.93333	197.3000
303.98475	202.3000
304.03617	199.3000
304.08757	194.3000
304.13898	201.3000
304.19037	206.3000
304.24177	207.3000
304.29315	216.3000
304.34453	224.3000
304.39591	213.3000
304.44727	212.3000
304.49864	214.3000
304.55000	219.3000
304.60135	220.3000
304.65269	229.3000
304.70404	231.3000
304.75537	214.3000
304.80670	209.3000
304.85802	206.3000
304.90934	206.3000
304.96066	214.3000
305.01196	217.3000
305.06326	224.3000
305.11456	234.3000
305.16585	265.3000
305.21714	341.3000
305.26841	458.3000
305.31969	471.3000
305.37096	371.3000
305.42222	290.3000
305.47348	266.3000
305.52473	266.3000
305.57597	243.3000
305.62721	249.3000
305.67845	224.3000
305.72968	232.3000
305.78090	241.3000
305.83212	250.3000
305.88333	235.3000
305.93453	244.3000
305.98573	238.3000
306.03693	225.3000
306.08812	229.3000
306.13930	245.3000
306.19048	255.3000
306.24165	261.3000
306.29282	268.3000
306.34398	262.3000
306.39514	245.3000
306.44629	224.3000
306.49743	243.3000
306.54857	236.3000
306.59970	240.3000
306.65083	236.3000
306.70195	240.3000
306.75307	238.3000
306.80418	225.3000
306.85529	219.3000
306.90639	218.3000
306.95748	220.3000
307.00857	219.3000
307.05965	223.3000
307.11073	214.3000
307.16180	211.3000
307.21287	219.3000
307.26393	220.3000
307.31498	215.3000
307.36603	219.3000
307.41708	218.3000
307.46811	213.3000
307.51915	212.3000
307.57017	208.3000
307.62119	213.3000
307.67221	206.3000
307.72322	207.3000
307.77422	214.3000
307.82522	214.3000
307.87622	210.3000
307.92720	221.3000
307.97819	211.3000
308.02916	218.3000
308.08013	214.3000
308.13110	214.3000
308.18206	221.3000
308.23301	213.3000
308.28396	214.3000
308.33490	216.3000
308.38584	221.3000
308.43677	224.3000
308.48770	224.3000
308.53862	216.3000
308.58953	213.3000
308.64044	229.3000
308.69135	225.3000
308.74224	231.3000
308.79314	224.3000
308.84402	225.3000
308.89491	229.3000
308.94578	224.3000
308.99665	221.3000
309.04752	242.3000
309.09837	227.3000
309.14923	249.3000
309.20008	283.3000
309.25092	328.3000
309.30175	336.3000
309.35258	314.3000
309.40341	264.3000
309.45423	237.3000
309.50504	237.3000
309.55585	233.3000
309.60665	255.3000
309.65745	276.3000
309.70824	304.3000
309.75903	301.3000
309.80981	275.3000
309.86058	243.3000
309.91135	242.3000
309.96212	233.3000
310.01288	238.3000
310.06363	255.3000
310.11437	259.3000
310.16512	256.3000
310.21585	264.3000
310.26658	287.3000
310.31731	324.3000
310.36803	413.3000
310.41874	565.3000
310.46945	624.3000
310.52015	553.3000
310.57084	407.3000
310.62154	323.3000
310.67222	295.3000
310.72290	292.3000
310.77357	291.3000
310.82424	337.3000
310.87491	360.3000
310.92556	341.3000
310.97622	320.3000
311.02686	297.3000
311.07750	279.3000
311.12814	290.3000
311.17877	302.3000
311.22939	305.3000
311.28001	302.3000
311.33062	296.3000
311.38123	290.3000
311.43183	294.3000
311.48243	303.3000
311.53302	291.3000
311.58360	289.3000
311.63418	281.3000
311.68475	279.3000
311.73532	280.3000
311.78588	274.3000
311.83644	282.3000
311.88699	297.3000
311.93754	293.3000
311.98808	280.3000
312.03861	286.3000
312.08914	288.3000
312.13966	281.3000
312.19018	283.3000
312.24069	312.3000
312.29120	356.3000
312.34170	407.3000
312.39219	435.3000
312.44268	387.3000
312.49317	347.3000
312.54365	324.3000
312.59412	352.3000
312.64459	432.3000
312.69505	521.3000
312.74550	583.3000
312.79595	547.3000
312.84640	453.3000
312.89684	376.3000
312.94727	336.3000
312.99770	358.3000
313.04812	389.3000
313.09854	467.3000
313.14895	507.3000
313.19936	472.3000
313.24976	399.3000
313.30015	339.3000
313.35054	316.3000
313.40092	301.3000
313.45130	302.3000
313.50167	318.3000
313.55204	343.3000
313.60240	405.3000
313.65276	488.3000
313.70311	467.3000
313.75345	389.3000
313.80379	324.3000
313.85412	304.3000
313.90445	279.3000
313.95477	278.3000
314.00509	273.3000
314.05540	252.3000
314.10571	259.3000
314.15601	256.3000
314.20630	250.3000
314.25659	257.3000
314.30687	248.3000
314.35715	260.3000
314.40742	257.3000
314.45769	248.3000
314.50795	243.3000
314.55820	257.3000
314.60845	256.3000
314.65869	260.3000
314.70893	258.3000
314.75917	258.3000
314.80939	267.3000
314.85961	256.3000
314.90983	262.3000
314.96004	267.3000
315.01025	271.3000
315.06044	278.3000
315.11064	269.3000
315.16083	280.3000
315.21101	300.3000
315.26119	326.3000
315.31136	376.3000
315.36152	419.3000
315.41168	438.3000
315.46184	418.3000
315.51199	393.3000
315.56213	366.3000
315.61227	342.3000
315.66240	329.3000
315.71253	317.3000
315.76265	319.3000
315.81276	324.3000
315.86287	330.3000
315.91298	343.3000
315.96308	349.3000
316.01317	348.3000
316.06326	367.3000
316.11334	416.3000
316.16341	504.3000
316.21349	566.3000
316.26355	660.3000
316.31361	789.3000
316.36366	904.3000
316.41371	898.3000
316.46376	763.3000
316.51379	545.3000
316.56382	418.3000
316.61385	362.3000
316.66387	337.3000
316.71389	319.3000
316.76390	315.3000
316.81390	307.3000
316.86390	303.3000
316.91389	298.3000
316.96388	304.3000
317.01386	299.3000
317.06384	312.3000
317.11381	304.3000
317.16377	301.3000
317.21373	297.3000
317.26368	303.3000
317.31363	311.3000
317.36358	311.3000
317.41351	313.3000
317.46344	326.3000
317.51337	362.3000
317.56329	402.3000
317.61320	428.3000
317.66311	417.3000
317.71302	385.3000
317.76292	366.3000
317.81281	371.3000
317.86269	429.3000
317.91258	527.3000
317.96245	646.3000
318.01232	797.3000
318.06219	884.3000
318.11205	787.3000
318.16190	651.3000
318.21175	480.3000
318.26159	392.3000
318.31143	368.3000
318.36126	340.3000
318.41108	328.3000
318.46090	318.3000
318.51072	321.3000
318.56053	308.3000
318.61033	293.3000
318.66013	306.3000
318.70992	295.3000
318.75971	317.3000
318.80949	320.3000
318.85926	357.3000
318.90903	385.3000
318.95880	421.3000
319.00855	419.3000
319.05831	401.3000
319.10806	347.3000
319.15780	318.3000
319.20753	308.3000
319.25726	312.3000
319.30699	308.3000
319.35671	316.3000
319.40642	317.3000
319.45613	310.3000
319.50584	322.3000
319.55553	312.3000
319.60522	319.3000
319.65491	318.3000
319.70459	301.3000
319.75427	290.3000
319.80394	293.3000
319.85360	293.3000
319.90326	296.3000
319.95291	294.3000
320.00256	306.3000
320.05220	299.3000
320.10184	293.3000
320.15147	308.3000
320.20109	310.3000
320.25071	313.3000
320.30033	309.3000
320.34994	307.3000
320.39954	302.3000
320.44914	315.3000
320.49873	304.3000
320.54831	312.3000
320.59789	316.3000
320.64747	316.3000
320.69704	315.3000
320.74660	315.3000
320.79616	324.3000
320.84571	325.3000
320.89526	337.3000
320.94480	360.3000
320.99434	396.3000
321.04387	417.3000
321.09339	470.3000
321.14291	583.3000
321.19243	641.3000
321.24193	622.3000
321.29144	556.3000
321.34093	441.3000
321.39043	368.3000
321.43991	353.3000
321.48939	340.3000
321.53887	331.3000
321.58834	332.3000
321.63780	327.3000
321.68726	338.3000
321.73671	325.3000
321.78616	329.3000
321.83560	330.3000
321.88504	344.3000
321.93447	361.3000
321.98389	388.3000
322.03331	419.3000
322.08272	423.3000
322.13213	404.3000
322.18154	365.3000
322.23093	353.3000
322.28032	351.3000
322.32971	353.3000
322.37909	365.3000
322.42846	359.3000
322.47783	348.3000
322.52720	365.3000
322.57656	424.3000
322.62591	481.3000
322.67526	524.3000
322.72460	524.3000
322.77393	496.3000
322.82326	482.3000
322.87259	543.3000
322.92191	639.3000
322.97122	668.3000
323.02053	617.3000
323.06983	523.3000
323.11913	429.3000
323.16842	417.3000
323.21771	404.3000
323.26699	392.3000
323.31626	370.3000
323.36553	361.3000
323.41479	370.3000
323.46405	377.3000
323.51330	375.3000
323.56255	354.3000
323.61179	362.3000
323.66103	358.3000
323.71026	356.3000
323.75948	395.3000
323.80870	457.3000
323.85792	543.3000
323.90712	582.3000
323.95633	560.3000
324.00552	492.3000
324.05472	422.3000
324.10390	385.3000
324.15308	361.3000
324.20226	368.3000
324.25143	340.3000
324.30059	333.3000
324.34975	336.3000
324.39890	332.3000
324.44805	320.3000
324.49719	335.3000
324.54632	344.3000
324.59545	339.3000
324.64458	341.3000
324.69370	355.3000
324.74281	380.3000
324.79192	429.3000
324.84102	459.3000
324.89012	447.3000
324.93921	425.3000
324.98830	384.3000
325.03738	362.3000
325.08645	343.3000
325.13552	341.3000
325.18459	359.3000
325.23364	352.3000
325.28270	352.3000
325.33174	351.3000
325.38079	345.3000
325.42982	347.3000
325.47885	347.3000
325.52788	343.3000
325.57690	343.3000
325.62591	340.3000
325.67492	353.3000
325.72392	365.3000
325.77292	371.3000
325.82191	371.3000
325.87090	372.3000
325.91988	363.3000
325.96885	365.3000
326.01782	359.3000
326.06678	376.3000
326.11574	371.3000
326.16470	375.3000
326.21364	394.3000
326.26258	403.3000
326.31152	398.3000
326.36045	387.3000
326.40938	384.3000
326.45830	377.3000
326.50721	380.3000
326.55612	379.3000
326.60502	392.3000
326.65392	422.3000
326.70281	426.3000
326.75170	461.3000
326.80058	497.3000
326.84945	567.3000
326.89832	660.3000
326.94719	865.3000
326.99604	1191.3000
327.04490	1615.3000
327.09374	1733.3000
327.14259	1514.3000
327.19142	1168.3000
327.24025	809.3000
327.28908	645.3000
327.33790	561.3000
327.38671	547.3000
327.43552	541.3000
327.48432	556.3000
327.53312	588.3000
327.58191	687.3000
327.63070	970.3000
327.67948	1284.3000
327.72826	1347.3000
327.77703	1182.3000
327.82579	933.3000
327.87455	685.3000
327.92330	595.3000
327.97205	568.3000
328.02079	601.3000
328.06953	642.3000
328.11826	681.3000
328.16699	723.3000
328.21571	841.3000
328.26442	878.3000
328.31313	864.3000
328.36183	790.3000
328.41053	651.3000
328.45922	566.3000
328.50791	517.3000
328.55659	476.3000
328.60527	501.3000
328.65394	513.3000
328.70260	499.3000
328.75126	467.3000
328.79991	428.3000
328.84856	397.3000
328.89720	389.3000
328.94584	370.3000
328.99447	377.3000
329.04310	364.3000
329.09172	361.3000
329.14033	372.3000
329.18894	365.3000
329.23754	382.3000
329.28614	387.3000
329.33473	384.3000
329.38332	391.3000
329.43190	392.3000
329.48048	396.3000
329.52905	392.3000
329.57761	369.3000
329.62617	360.3000
329.67473	377.3000
329.72328	366.3000
329.77182	365.3000
329.82036	368.3000
329.86889	368.3000
329.91741	389.3000
329.96593	408.3000
330.01445	435.3000
330.06296	466.3000
330.11146	476.3000
330.15996	480.3000
330.20845	529.3000
330.25694	624.3000
330.30542	737.3000
330.35390	903.3000
330.40237	994.3000
330.45083	892.3000
330.49929	748.3000
330.54775	589.3000
330.59620	466.3000
330.64464	434.3000
330.69308	403.3000
330.74151	421.3000
330.78994	410.3000
330.83836	407.3000
330.88677	425.3000
330.93518	409.3000
330.98359	407.3000
331.03199	416.3000
331.08038	444.3000
331.12877	476.3000
331.17715	529.3000
331.22553	550.3000
331.27390	519.3000
331.32226	480.3000
331.37062	430.3000
331.41898	409.3000
331.46733	395.3000
331.51567	399.3000
331.56401	407.3000
331.61234	453.3000
331.66067	489.3000
331.70899	483.3000
331.75730	470.3000
331.80561	435.3000
331.85392	410.3000
331.90222	428.3000
331.95051	430.3000
331.99880	448.3000
332.04708	502.3000
332.09536	524.3000
332.14363	514.3000
332.19190	477.3000
332.24016	461.3000
332.28841	446.3000
332.33666	457.3000
332.38491	481.3000
332.43315	583.3000
332.48138	638.3000
332.52961	629.3000
332.57783	574.3000
332.62604	515.3000
332.67425	482.3000
332.72246	474.3000
332.77066	469.3000
332.81885	461.3000
332.86704	457.3000
332.91523	459.3000
332.96340	473.3000
333.01158	475.3000
333.05974	490.3000
333.10790	525.3000
333.15606	631.3000
333.20421	768.3000
333.25235	792.3000
333.30049	741.3000
333.34863	643.3000
333.39675	553.3000
333.44488	510.3000
333.49299	506.3000
333.54110	520.3000
333.58921	579.3000
333.63731	599.3000
333.68541	597.3000
333.73349	578.3000
333.78158	660.3000
333.82966	733.3000
333.87773	705.3000
333.92580	643.3000
333.97386	564.3000
334.02191	490.3000
334.06996	484.3000
334.11801	472.3000
334.16605	504.3000
334.21408	565.3000
334.26211	649.3000
334.31013	632.3000
334.35815	600.3000
334.40616	513.3000
334.45417	471.3000
334.50217	456.3000
334.55017	437.3000
334.59816	424.3000
334.64614	432.3000
334.69412	433.3000
334.74209	425.3000
334.79006	422.3000
334.83802	432.3000
334.88598	434.3000
334.93393	436.3000
334.98188	439.3000
335.02982	451.3000
335.07775	460.3000
335.12568	458.3000
335.17360	519.3000
335.22152	553.3000
335.26944	571.3000
335.31734	627.3000
335.36524	795.3000
335.41314	838.3000
335.46103	866.3000
335.50892	865.3000
335.55679	715.3000
335.60467	623.3000
335.65254	543.3000
335.70040	500.3000
335.74826	562.3000
335.79611	594.3000
335.84396	589.3000
335.89180	549.3000
335.93963	502.3000
335.98746	464.3000
336.03529	473.3000
336.08310	462.3000
336.13092	488.3000
336.17873	494.3000
336.22653	461.3000
336.27432	445.3000
336.32212	419.3000
336.36990	414.3000
336.41768	404.3000
336.46546	397.3000
336.51323	417.3000
336.56099	438.3000
336.60875	433.3000
336.65650	423.3000
336.70425	449.3000
336.75199	451.3000
336.79972	429.3000
336.84746	413.3000
336.89518	427.3000
336.94290	416.3000
336.99061	417.3000
337.03832	441.3000
337.08603	516.3000
337.13372	594.3000
337.18141	660.3000
337.22910	801.3000
337.27678	791.3000
337.32446	701.3000
337.37213	636.3000
337.41979	563.3000
337.46745	516.3000
337.51510	511.3000
337.56275	490.3000
337.61039	469.3000
337.65803	452.3000
337.70566	438.3000
337.75329	415.3000
337.80091	405.3000
337.84852	398.3000
337.89613	392.3000
337.94374	381.3000
337.99133	399.3000
338.03893	396.3000
338.08651	404.3000
338.13410	405.3000
338.18167	408.3000
338.22924	408.3000
338.27681	411.3000
338.32437	414.3000
338.37192	449.3000
338.41947	460.3000
338.46701	522.3000
338.51455	651.3000
338.56208	962.3000
338.60961	1131.3000
338.65713	1090.3000
338.70465	938.3000
338.75216	791.3000
338.79966	706.3000
338.84716	796.3000
338.89466	1067.3000
338.94214	1777.3000
338.98963	2224.3000
339.03710	2111.3000
339.08457	1796.3000
339.13204	1276.3000
339.17950	899.3000
339.22696	724.3000
339.27441	601.3000
339.32185	559.3000
339.36929	583.3000
339.41672	643.3000
339.46415	610.3000
339.51157	565.3000
339.55899	534.3000
339.60640	487.3000
339.65380	487.3000
339.70120	562.3000
339.74860	589.3000
339.79599	556.3000
339.84337	511.3000
339.89075	451.3000
339.93812	446.3000
339.98549	465.3000
340.03285	517.3000
340.08021	603.3000
340.12756	676.3000
340.17490	692.3000
340.22224	731.3000
340.26957	787.3000
340.31690	702.3000
340.36423	612.3000
340.41154	529.3000
340.45886	475.3000
340.50616	450.3000
340.55346	474.3000
340.60076	507.3000
340.64805	502.3000
340.69533	509.3000
340.74261	546.3000
340.78989	692.3000
340.83715	751.3000
340.88442	687.3000
340.93167	617.3000
340.97892	505.3000
341.02617	453.3000
341.07341	461.3000
341.12065	459.3000
341.16787	464.3000
341.21510	520.3000
341.26232	565.3000
341.30953	530.3000
341.35674	496.3000
341.40394	431.3000
341.45114	393.3000
341.49833	376.3000
341.54551	376.3000
341.59269	372.3000
341.63987	378.3000
341.68704	377.3000
341.73420	377.3000
341.78136	382.3000
341.82851	370.3000
341.87566	360.3000
341.92280	368.3000
341.96993	357.3000
342.01706	358.3000
342.06419	363.3000
342.11131	370.3000
342.15842	384.3000
342.20553	409.3000
342.25263	447.3000
342.29973	448.3000
342.34682	433.3000
342.39391	421.3000
342.44099	412.3000
342.48807	397.3000
342.53514	407.3000
342.58220	414.3000
342.62926	425.3000
342.67631	424.3000
342.72336	454.3000
342.77040	553.3000
342.81744	813.3000
342.86447	923.3000
342.91150	913.3000
342.95852	830.3000
343.00553	722.3000
343.05254	649.3000
343.09955	596.3000
343.14655	573.3000
343.19354	559.3000
343.24053	547.3000
343.28751	545.3000
343.33449	534.3000
343.38146	562.3000
343.42842	663.3000
343.47538	864.3000
343.52234	1118.3000
343.56929	1698.3000
343.61623	2116.3000
343.66317	1891.3000
343.71010	1480.3000
343.75703	1063.3000
343.80395	767.3000
343.85087	628.3000
343.89778	554.3000
343.94468	523.3000
343.99158	478.3000
344.03848	454.3000
344.08536	455.3000
344.13225	478.3000
344.17913	466.3000
344.22600	467.3000
344.27286	450.3000
344.31973	404.3000
344.36658	390.3000
344.41343	394.3000
344.46028	390.3000
344.50712	422.3000
344.55395	404.3000
344.60078	400.3000
344.64760	384.3000
344.69442	368.3000
344.74123	362.3000
344.78804	357.3000
344.83484	357.3000
344.88163	356.3000
344.92842	357.3000
344.97521	348.3000
345.02199	354.3000
345.06876	342.3000
345.11553	340.3000
345.16229	346.3000
345.20905	344.3000
345.25580	369.3000
345.30255	370.3000
345.34929	382.3000
345.39602	382.3000
345.44275	393.3000
345.48947	459.3000
345.53619	589.3000
345.58291	604.3000
345.62961	573.3000
345.67632	574.3000
345.72301	529.3000
345.76970	504.3000
345.81639	444.3000
345.86307	414.3000
345.90974	415.3000
345.95641	421.3000
346.00308	472.3000
346.04974	644.3000
346.09639	872.3000
346.14304	839.3000
346.18968	750.3000
346.23631	618.3000
346.28295	495.3000
346.32957	441.3000
346.37619	408.3000
346.42280	403.3000
346.46941	371.3000
346.51602	363.3000
346.56262	354.3000
346.60921	360.3000
346.65579	363.3000
346.70238	352.3000
346.74895	367.3000
346.79552	378.3000
346.84209	384.3000
346.88865	432.3000
346.93520	419.3000
346.98175	400.3000
347.02829	379.3000
347.07483	368.3000
347.12136	356.3000
347.16789	355.3000
347.21441	356.3000
347.26093	356.3000
347.30744	362.3000
347.35394	367.3000
347.40044	377.3000
347.44694	406.3000
347.49342	415.3000
347.53991	461.3000
347.58638	563.3000
347.63286	724.3000
347.67932	1081.3000
347.72578	1412.3000
347.77224	1331.3000
347.81869	1270.3000
347.86513	1392.3000
347.91157	1491.3000
347.95801	1259.3000
348.00443	1006.3000
348.05086	816.3000
348.09727	730.3000
348.14369	770.3000
348.19009	676.3000
348.23649	598.3000
348.28289	521.3000
348.32928	472.3000
348.37566	420.3000
348.42204	406.3000
348.46841	382.3000
348.51478	367.3000
348.56114	357.3000
348.60750	364.3000
348.65385	364.3000
348.70020	356.3000
348.74654	349.3000
348.79287	347.3000
348.83920	362.3000
348.88553	357.3000
348.93185	367.3000
348.97816	377.3000
349.02447	387.3000
349.07077	395.3000
349.11706	412.3000
349.16336	426.3000
349.20964	480.3000
349.25592	537.3000
349.30220	643.3000
349.34847	975.3000
349.39473	1656.3000
349.44099	1659.3000
349.48724	1394.3000
349.53349	1124.3000
349.57973	849.3000
349.62597	697.3000
349.67220	632.3000
349.71842	596.3000
349.76464	580.3000
349.81086	547.3000
349.85707	497.3000
349.90327	454.3000
349.94947	423.3000
349.99566	398.3000
350.04185	391.3000
350.08803	400.3000
350.13421	389.3000
350.18038	420.3000
350.22654	464.3000
350.27270	583.3000
350.31886	989.3000
350.36501	1236.3000
350.41115	1116.3000
350.45729	906.3000
350.50342	691.3000
350.54955	549.3000
350.59567	464.3000
350.64178	421.3000
350.68790	428.3000
350.73400	425.3000
350.78010	418.3000
350.82619	427.3000
350.87228	409.3000
350.91837	386.3000
350.96444	365.3000
351.01052	353.3000
351.05658	336.3000
351.10265	317.3000
351.14870	313.3000
351.19475	310.3000
351.24080	328.3000
351.28684	320.3000
351.33287	325.3000
351.37890	310.3000
351.42492	293.3000
351.47094	301.3000
351.51695	299.3000
351.56296	293.3000
351.60896	291.3000
351.65496	302.3000
351.70095	319.3000
351.74693	364.3000
351.79291	366.3000
351.83888	372.3000
351.88485	371.3000
351.93082	339.3000
351.97677	323.3000
352.02273	311.3000
352.06867	287.3000
352.11461	283.3000
352.16055	293.3000
352.20648	293.3000
352.25240	299.3000
352.29832	307.3000
352.34424	369.3000
352.39015	402.3000
352.43605	383.3000
352.48195	390.3000
352.52784	395.3000
352.57372	372.3000
352.61961	352.3000
352.66548	334.3000
352.71135	316.3000
352.75722	321.3000
352.80308	341.3000
352.84893	380.3000
352.89478	390.3000
352.94062	359.3000
352.98646	332.3000
353.03229	323.3000
353.07812	300.3000
353.12394	325.3000
353.16975	303.3000
353.21556	298.3000
353.26137	298.3000
353.30717	310.3000
353.35296	304.3000
353.39875	307.3000
353.44453	317.3000
353.49031	333.3000
353.53608	330.3000
353.58185	320.3000
353.62761	333.3000
353.67336	323.3000
353.71911	322.3000
353.76486	316.3000
353.81060	317.3000
353.85633	311.3000
353.90206	318.3000
353.94778	353.3000
353.99350	448.3000
354.03921	694.3000
354.08492	763.3000
354.13062	659.3000
354.17631	540.3000
354.22200	433.3000
354.26769	374.3000
354.31337	345.3000
354.35904	311.3000
354.40471	307.3000
354.45037	318.3000
354.49603	323.3000
354.54168	375.3000
354.58733	398.3000
354.63297	375.3000
354.67860	374.3000
354.72423	402.3000
354.76986	454.3000
354.81548	447.3000
354.86109	452.3000
354.90670	464.3000
354.95230	636.3000
354.99790	807.3000
355.04349	691.3000
355.08908	585.3000
355.13466	485.3000
355.18023	463.3000
355.22580	451.3000
355.27137	436.3000
355.31693	437.3000
355.36248	451.3000
355.40803	644.3000
355.45357	1059.3000
355.49911	1034.3000
355.54464	883.3000
355.59017	707.3000
355.63569	518.3000
355.68120	435.3000
355.72671	384.3000
355.77222	367.3000
355.81772	341.3000
355.86321	323.3000
355.90870	309.3000
355.95418	311.3000
355.99966	305.3000
356.04513	297.3000
356.09060	303.3000
356.13606	300.3000
356.18151	300.3000
356.22696	307.3000
356.27241	320.3000
356.31785	369.3000
356.36328	389.3000
356.40871	410.3000
356.45413	384.3000
356.49955	352.3000
356.54496	338.3000
356.59037	349.3000
356.63577	339.3000
356.68116	358.3000
356.72655	355.3000
356.77194	339.3000
356.81732	348.3000
356.86269	371.3000
356.90806	403.3000
356.95342	499.3000
356.99878	803.3000
357.04413	1303.3000
357.08948	1178.3000
357.13482	973.3000
357.18016	732.3000
357.22549	526.3000
357.27081	430.3000
357.31613	406.3000
357.36144	447.3000
357.40675	479.3000
357.45205	679.3000
357.49735	953.3000
357.54264	866.3000
357.58793	767.3000
357.63321	660.3000
357.67849	519.3000
357.72376	437.3000
357.76902	387.3000
357.81428	355.3000
357.85954	330.3000
357.90478	320.3000
357.95003	307.3000
357.99526	311.3000
358.04050	308.3000
358.08572	295.3000
358.13094	291.3000
358.17616	274.3000
358.22137	273.3000
358.26658	275.3000
358.31178	276.3000
358.35697	283.3000
358.40216	300.3000
358.44734	326.3000
358.49252	316.3000
358.53769	332.3000
358.58286	434.3000
358.62802	487.3000
358.67318	461.3000
358.71833	409.3000
358.76347	359.3000
358.80861	312.3000
358.85374	290.3000
358.89887	272.3000
358.94400	276.3000
358.98911	278.3000
359.03423	262.3000
359.07933	271.3000
359.12444	265.3000
359.16953	270.3000
359.21462	267.3000
359.25971	268.3000
359.30479	270.3000
359.34986	266.3000
359.39493	259.3000
359.43999	267.3000
359.48505	258.3000
359.53010	261.3000
359.57515	259.3000
359.62019	273.3000
359.66523	277.3000
359.71026	272.3000
359.75529	301.3000
359.80030	327.3000
359.84532	337.3000
359.89033	369.3000
359.93533	423.3000
359.98033	374.3000
360.02532	330.3000
360.07031	296.3000
360.11529	280.3000
360.16027	275.3000
360.20524	267.3000
360.25021	272.3000
360.29517	264.3000
360.34012	269.3000
360.38507	259.3000
360.43001	274.3000
360.47495	294.3000
360.51988	326.3000
360.56481	377.3000
360.60973	356.3000
360.65465	334.3000
360.69956	316.3000
360.74447	308.3000
360.78937	300.3000
360.83426	319.3000
360.87915	350.3000
360.92404	403.3000
360.96891	606.3000
361.01379	774.3000
361.05866	755.3000
361.10352	863.3000
361.14837	777.3000
361.19323	624.3000
361.23807	619.3000
361.28291	781.3000
361.32775	737.3000
361.37258	589.3000
361.41740	471.3000
361.46222	383.3000
361.50703	341.3000
361.55184	308.3000
361.59664	284.3000
361.64144	280.3000
361.68623	273.3000
361.73102	272.3000
361.77580	271.3000
361.82058	264.3000
361.86534	259.3000
361.91011	243.3000
361.95487	256.3000
361.99962	254.3000
362.04437	246.3000
362.08911	242.3000
362.13385	256.3000
362.17858	304.3000
362.22331	307.3000
362.26803	275.3000
362.31275	259.3000
362.35746	243.3000
362.40216	231.3000
362.44686	232.3000
362.49155	234.3000
362.53624	228.3000
362.58093	220.3000
362.62560	222.3000
362.67027	234.3000
362.71494	233.3000
362.75960	246.3000
362.80426	295.3000
362.84891	288.3000
362.89355	273.3000
362.93819	263.3000
362.98283	249.3000
363.02746	237.3000
363.07208	250.3000
363.11670	275.3000
363.16131	309.3000
363.20592	309.3000
363.25052	286.3000
363.29512	256.3000
363.33971	245.3000
363.38429	235.3000
363.42887	259.3000
363.47345	280.3000
363.51801	251.3000
363.56258	251.3000
363.60714	239.3000
363.65169	223.3000
363.69624	229.3000
363.74078	223.3000
363.78532	224.3000
363.82985	219.3000
363.87437	213.3000
363.91889	223.3000
363.96341	214.3000
364.00792	210.3000
364.05242	212.3000
364.09692	212.3000
364.14141	209.3000
364.18590	216.3000
364.23038	215.3000
364.27486	217.3000
364.31933	217.3000
364.36380	216.3000
364.40826	222.3000
364.45271	209.3000
364.49716	214.3000
364.54161	224.3000
364.58604	215.3000
364.63048	217.3000
364.67491	221.3000
364.71933	227.3000
364.76375	225.3000
364.80816	220.3000
364.85256	232.3000
364.89697	249.3000
364.94136	251.3000
364.98575	243.3000
365.03014	244.3000
365.07451	223.3000
365.11889	226.3000
365.16326	221.3000
365.20762	227.3000
365.25198	218.3000
365.29633	231.3000
365.34068	239.3000
365.38502	237.3000
365.42935	242.3000
365.47368	238.3000
365.51801	229.3000
365.56233	229.3000
365.60664	221.3000
365.65095	227.3000
365.69526	228.3000
365.73955	227.3000
365.78385	223.3000
365.82813	225.3000
365.87241	219.3000
365.91669	265.3000
365.96096	279.3000
366.00523	295.3000
366.04949	301.3000
366.09374	273.3000
366.13799	274.3000
366.18223	302.3000
366.22647	280.3000
366.27071	255.3000
366.31493	237.3000
366.35916	232.3000
366.40337	225.3000
366.44758	219.3000
366.49179	225.3000
366.53599	229.3000
366.58019	243.3000
366.62437	258.3000
366.66856	287.3000
366.71274	276.3000
366.75691	276.3000
366.80108	266.3000
366.84524	258.3000
366.88940	291.3000
366.93355	384.3000
366.97770	385.3000
367.02184	334.3000
367.06597	311.3000
367.11010	272.3000
367.15423	258.3000
367.19835	253.3000
367.24246	309.3000
367.28657	471.3000
367.33067	462.3000
367.37477	392.3000
367.41886	336.3000
367.46295	276.3000
367.50703	253.3000
367.55111	245.3000
367.59518	240.3000
367.63924	244.3000
367.68330	285.3000
367.72736	314.3000
367.77140	281.3000
367.81545	267.3000
367.85949	240.3000
367.90352	228.3000
367.94755	217.3000
367.99157	215.3000
368.03558	223.3000
368.07960	207.3000
368.12360	224.3000
368.16760	224.3000
368.21160	214.3000
368.25559	217.3000
368.29957	217.3000
368.34355	216.3000
368.38752	214.3000
368.43149	207.3000
368.47545	219.3000
368.51941	214.3000
368.56336	216.3000
368.60731	219.3000
368.65125	219.3000
368.69518	215.3000
368.73911	218.3000
368.78304	208.3000
368.82695	211.3000
368.87087	211.3000
368.91478	213.3000
368.95868	219.3000
369.00258	208.3000
369.04647	215.3000
369.09036	215.3000
369.13424	216.3000
369.17811	220.3000
369.22198	231.3000
369.26585	231.3000
369.30971	229.3000
369.35356	241.3000
369.39741	249.3000
369.44125	253.3000
369.48509	279.3000
369.52892	321.3000
369.57275	478.3000
369.61657	668.3000
369.66039	904.3000
369.70420	753.3000
369.74801	577.3000
369.79181	428.3000
369.83560	333.3000
369.87939	304.3000
369.92317	280.3000
369.96695	261.3000
370.01073	239.3000
370.05449	237.3000
370.09826	233.3000
370.14201	232.3000
370.18576	231.3000
370.22951	229.3000
370.27325	225.3000
370.31699	226.3000
370.36072	228.3000
370.40444	226.3000
370.44816	222.3000
370.49187	231.3000
370.53558	232.3000
370.57928	238.3000
370.62298	254.3000
370.66667	267.3000
370.71036	331.3000
370.75404	523.3000
370.79772	515.3000
370.84139	415.3000
370.88505	319.3000
370.92871	273.3000
370.97237	252.3000
371.01602	245.3000
371.05966	232.3000
371.10330	236.3000
371.14693	231.3000
371.19056	231.3000
371.23418	249.3000
371.27780	278.3000
371.32141	314.3000
371.36501	290.3000
371.40861	256.3000
371.45221	232.3000
371.49580	219.3000
371.53938	223.3000
371.58296	221.3000
371.62653	217.3000
371.67010	213.3000
371.71366	233.3000
371.75722	232.3000
371.80077	226.3000
371.84432	219.3000
371.88786	217.3000
371.93140	213.3000
371.97493	209.3000
372.01845	213.3000
372.06197	209.3000
372.10548	199.3000
372.14899	213.3000
372.19250	213.3000
372.23599	219.3000
372.27949	207.3000
372.32297	214.3000
372.36645	219.3000
372.40993	220.3000
372.45340	210.3000
372.49687	227.3000
372.54033	228.3000
372.58378	259.3000
372.62723	279.3000
372.67067	263.3000
372.71411	244.3000
372.75754	250.3000
372.80097	257.3000
372.84439	271.3000
372.88781	283.3000
372.93122	332.3000
372.97463	446.3000
373.01803	390.3000
373.06142	311.3000
373.10481	255.3000
373.14820	239.3000
373.19158	219.3000
373.23495	222.3000
373.27832	215.3000
373.32168	212.3000
373.36504	209.3000
373.40839	210.3000
373.45174	202.3000
373.49508	204.3000
373.53842	202.3000
373.58175	208.3000
373.62507	216.3000
373.66839	211.3000
373.71171	214.3000
373.75502	211.3000
373.79832	207.3000
373.84162	200.3000
373.88491	207.3000
373.92820	203.3000
373.97148	204.3000
374.01476	212.3000
374.05803	207.3000
374.10129	212.3000
374.14455	215.3000
374.18781	217.3000
374.23106	220.3000
374.27430	223.3000
374.31754	233.3000
374.36078	271.3000
374.40400	334.3000
374.44723	496.3000
374.49044	447.3000
374.53366	349.3000
374.57686	285.3000
374.62006	255.3000
374.66326	244.3000
374.70645	244.3000
374.74963	242.3000
374.79281	245.3000
374.83599	264.3000
374.87916	275.3000
374.92232	324.3000
374.96548	421.3000
375.00863	648.3000
375.05178	613.3000
375.09492	444.3000
375.13806	342.3000
375.18119	281.3000
375.22431	256.3000
375.26743	231.3000
375.31055	234.3000
375.35366	230.3000
375.39676	222.3000
375.43986	216.3000
375.48296	213.3000
375.52604	210.3000
375.56913	223.3000
375.61220	233.3000
375.65528	243.3000
375.69834	240.3000
375.74140	219.3000
375.78446	211.3000
375.82751	204.3000
375.87056	203.3000
375.91359	197.3000
375.95663	192.3000
375.99966	189.3000
376.04268	187.3000
376.08570	191.3000
376.12871	189.3000
376.17172	186.3000
376.21472	189.3000
376.25772	190.3000
376.30071	218.3000
376.34370	204.3000
376.38668	196.3000
376.42965	193.3000
376.47262	197.3000
376.51558	281.3000
376.55854	351.3000
376.60150	292.3000
376.64445	244.3000
376.68739	213.3000
376.73033	190.3000
376.77326	188.3000
376.81618	186.3000
376.85911	180.3000
376.90202	173.3000
376.94493	178.3000
376.98784	182.3000
377.03074	179.3000
377.07363	196.3000
377.11652	188.3000
377.15940	179.3000
377.20228	173.3000
377.24515	172.3000
377.28802	179.3000
377.33088	168.3000
377.37374	177.3000
377.41659	173.3000
377.45944	169.3000
377.50228	167.3000
377.54511	167.3000
377.58794	172.3000
377.63077	162.3000
377.67359	168.3000
377.71640	172.3000
377.75921	174.3000
377.80201	169.3000
377.84481	168.3000
377.88760	181.3000
377.93039	199.3000
377.97317	188.3000
378.01595	180.3000
378.05872	185.3000
378.10148	182.3000
378.14424	185.3000
378.18700	187.3000
378.22975	171.3000
378.27249	169.3000
378.31523	176.3000
378.35796	175.3000
378.40069	176.3000
378.44341	170.3000
378.48613	176.3000
378.52884	173.3000
378.57155	174.3000
378.61425	174.3000
378.65694	167.3000
378.69963	167.3000
378.74232	169.3000
378.78500	170.3000
378.82767	160.3000
378.87034	159.3000
378.91300	169.3000
378.95566	167.3000
378.99831	188.3000
379.04096	189.3000
379.08360	179.3000
379.12624	168.3000
379.16887	163.3000
379.21149	166.3000
379.25412	158.3000
379.29673	157.3000
379.33934	156.3000
379.38194	158.3000
379.42454	164.3000
379.46714	168.3000
379.50972	206.3000
379.55231	221.3000
379.59488	188.3000
379.63746	172.3000
379.68002	165.3000
379.72258	168.3000
379.76514	157.3000
379.80769	153.3000
379.85023	159.3000
379.89277	152.3000
379.93531	161.3000
379.97784	168.3000
380.02036	161.3000
380.06288	143.3000
380.10539	155.3000
380.14790	147.3000
380.19040	157.3000
380.23290	147.3000
380.27539	146.3000
380.31788	150.3000
380.36036	151.3000
380.40283	146.3000
380.44530	149.3000
380.48777	140.3000
380.53023	149.3000
380.57268	144.3000
380.61513	150.3000
380.65757	151.3000
380.70001	144.3000
380.74244	147.3000
380.78487	150.3000
380.82729	148.3000
380.86971	145.3000
380.91212	146.3000
380.95452	151.3000
380.99692	139.3000
381.03932	141.3000
381.08171	137.3000
381.12409	141.3000
381.16647	142.3000
381.20884	137.3000
381.25121	156.3000
381.29357	146.3000
381.33593	143.3000
381.37828	152.3000
381.42063	146.3000
381.46297	145.3000
381.50531	156.3000
381.54764	150.3000
381.58996	163.3000
381.63228	206.3000
381.67460	198.3000
381.71691	170.3000
381.75921	155.3000
381.80151	151.3000
381.84380	149.3000
381.88609	145.3000
381.92837	141.3000
381.97065	152.3000
382.01292	151.3000
382.05518	147.3000
382.09745	160.3000
382.13970	178.3000
382.18195	159.3000
382.22420	150.3000
382.26643	149.3000
382.30867	146.3000
382.35090	145.3000
382.39312	153.3000
382.43534	148.3000
382.47755	142.3000
382.51976	139.3000
382.56196	151.3000
382.60416	147.3000
382.64635	151.3000
382.68853	145.3000
382.73071	151.3000
382.77289	148.3000
382.81506	143.3000
382.85722	143.3000
382.89938	151.3000
382.94153	136.3000
382.98368	144.3000
383.02583	146.3000
383.06796	148.3000
383.11010	144.3000
383.15222	161.3000
383.19434	158.3000
383.23646	154.3000
383.27857	163.3000
383.32068	171.3000
383.36278	171.3000
383.40487	174.3000
383.44696	214.3000
383.48904	291.3000
383.53112	392.3000
383.57320	560.3000
383.61526	409.3000
383.65733	269.3000
383.69938	216.3000
383.74143	195.3000
383.78348	179.3000
383.82552	166.3000
383.86756	155.3000
383.90959	151.3000
383.95161	153.3000
383.99363	155.3000
384.03565	154.3000
384.07766	155.3000
384.11966	158.3000
384.16166	186.3000
384.20365	261.3000
384.24564	217.3000
384.28762	176.3000
384.32960	164.3000
384.37157	157.3000
384.41353	149.3000
384.45550	153.3000
384.49745	150.3000
384.53940	149.3000
384.58135	155.3000
384.62329	158.3000
384.66522	158.3000
384.70715	143.3000
384.74907	143.3000
384.79099	158.3000
384.83290	169.3000
384.87481	149.3000
384.91671	150.3000
384.95861	146.3000
385.00050	140.3000
385.04238	145.3000
385.08427	142.3000
385.12614	139.3000
385.16801	140.3000
385.20987	139.3000
385.25173	146.3000
385.29359	141.3000
385.33544	138.3000
385.37728	139.3000
385.41912	149.3000
385.46095	142.3000
385.50278	137.3000
385.54460	141.3000
385.58641	140.3000
385.62823	137.3000
385.67003	134.3000
385.71183	135.3000
385.75363	134.3000
385.79542	137.3000
385.83720	141.3000
385.87898	136.3000
385.92075	134.3000
385.96252	137.3000
386.00428	132.3000
386.04604	138.3000
386.08779	129.3000
386.12954	139.3000
386.17128	136.3000
386.21302	132.3000
386.25475	154.3000
386.29647	202.3000
386.33819	189.3000
386.37991	161.3000
386.42162	143.3000
386.46332	139.3000
386.50502	135.3000
386.54671	130.3000
386.58840	131.3000
386.63008	132.3000
386.67176	123.3000
386.71343	132.3000
386.75510	131.3000
386.79676	124.3000
386.83842	132.3000
386.88007	129.3000
386.92171	127.3000
386.96335	133.3000
387.00499	130.3000
387.04662	136.3000
387.08824	125.3000
387.12986	130.3000
387.17147	134.3000
387.21308	130.3000
387.25468	129.3000
387.29628	124.3000
387.33787	135.3000
387.37946	133.3000
387.42104	135.3000
387.46262	130.3000
387.50419	133.3000
387.54575	128.3000
387.58731	126.3000
387.62887	133.3000
387.67041	154.3000
387.71196	147.3000
387.75350	136.3000
387.79503	143.3000
387.83656	139.3000
387.87808	139.3000
387.91960	137.3000
387.96111	131.3000
388.00262	129.3000
388.04412	138.3000
388.08561	142.3000
388.12710	142.3000
388.16859	139.3000
388.21007	129.3000
388.25154	133.3000
388.29301	127.3000
388.33447	125.3000
388.37593	126.3000
388.41739	129.3000
388.45883	148.3000
388.50028	144.3000
388.54171	128.3000
388.58314	118.3000
388.62457	122.3000
388.66599	116.3000
388.70741	114.3000
388.74882	112.3000
388.79022	115.3000
388.83162	114.3000
388.87302	115.3000
388.91441	131.3000
388.95579	157.3000
388.99717	151.3000
389.03854	145.3000
389.07991	153.3000
389.12127	143.3000
389.16263	127.3000
389.20398	119.3000
389.24533	120.3000
389.28667	114.3000
389.32800	110.3000
389.36933	109.3000
389.41066	108.3000
389.45198	111.3000
389.49329	107.3000
389.53460	107.3000
389.57590	105.3000
389.61720	106.3000
389.65849	101.3000
389.69978	107.3000
389.74106	99.3000
389.78234	94.3000
389.82361	90.3000
389.86488	93.3000
389.90614	86.3000
389.94740	84.3000
389.98865	89.3000
390.02989	83.3000
390.07113	83.3000
390.11237	81.3000
390.15359	79.3000
390.19482	72.3000
390.23604	75.3000
390.27725	73.3000
390.31846	66.3000
390.35966	69.3000
390.40086	69.3000
390.44205	67.3000
390.48323	59.3000
390.52441	62.3000
390.56559	65.3000
390.60676	54.3000
390.64793	56.3000
390.68909	56.3000
390.73024	53.3000
390.77139	50.3000
390.81253	42.3000
390.85367	44.3000
390.89480	42.3000
390.93593	44.3000
390.97705	41.3000
391.01817	38.3000
391.05928	38.3000
391.10039	33.3000
391.14149	42.3000
391.18259	32.3000
391.22368	32.3000
391.26476	26.3000
391.30584	27.3000
391.34692	25.3000
391.38798	24.3000
391.42905	26.3000
391.47011	25.3000
391.51116	20.3000
391.55221	21.3000
391.59325	26.3000
391.63429	16.3000
391.67532	13.3000
391.71635	17.3000
391.75737	12.3000
391.85054	160.3000
391.91886	168.3000
391.98718	162.3000
392.05549	149.3000
392.12379	160.3000
392.19209	156.3000
392.26038	152.3000
392.32867	160.3000
392.39695	153.3000
392.46522	157.3000
392.53349	158.3000
392.60175	166.3000
392.67000	176.3000
392.73825	174.3000
392.80649	164.3000
392.87473	163.3000
392.94296	168.3000
393.01118	178.3000
393.07940	218.3000
393.14761	240.3000
393.21582	240.3000
393.28402	210.3000
393.35221	183.3000
393.42040	170.3000
393.48858	159.3000
393.55675	146.3000
393.62492	155.3000
393.69308	161.3000
393.76124	157.3000
393.82939	158.3000
393.89753	158.3000
393.96567	165.3000
394.03380	156.3000
394.10192	156.3000
394.17004	157.3000
394.23815	158.3000
394.30626	167.3000
394.37436	159.3000
394.44245	165.3000
394.51054	159.3000
394.57862	155.3000
394.64669	166.3000
394.71476	160.3000
394.78282	163.3000
394.85088	170.3000
394.91893	165.3000
394.98697	174.3000
395.05501	175.3000
395.12304	173.3000
395.19106	180.3000
395.25908	189.3000
395.32709	202.3000
395.39510	232.3000
395.46310	276.3000
395.53109	348.3000
395.59908	333.3000
395.66706	246.3000
395.73504	197.3000
395.80300	187.3000
395.87097	184.3000
395.93892	182.3000
396.00687	176.3000
396.07481	179.3000
396.14275	172.3000
396.21068	170.3000
396.27861	175.3000
396.34653	177.3000
396.41444	190.3000
396.48234	187.3000
396.55024	198.3000
396.61814	193.3000
396.68602	179.3000
396.75390	181.3000
396.82178	178.3000
396.88965	179.3000
396.95751	190.3000
397.02537	190.3000
397.09322	199.3000
397.16106	197.3000
397.22890	191.3000
397.29673	183.3000
397.36455	184.3000
397.43237	190.3000
397.50018	182.3000
397.56799	178.3000
397.63579	191.3000
397.70358	190.3000
397.77137	187.3000
397.83915	199.3000
397.90692	203.3000
397.97469	202.3000
398.04245	193.3000
398.11020	193.3000
398.17795	196.3000
398.24570	199.3000
398.31343	197.3000
398.38116	198.3000
398.44889	207.3000
398.51661	215.3000
398.58432	233.3000
398.65202	250.3000
398.71972	306.3000
398.78741	369.3000
398.85510	410.3000
398.92278	367.3000
398.99045	301.3000
399.05812	297.3000
399.12578	311.3000
399.19344	332.3000
399.26108	341.3000
399.32873	340.3000
399.39636	357.3000
399.46399	357.3000
399.53161	378.3000
399.59923	427.3000
399.66684	390.3000
399.73445	322.3000
399.80204	281.3000
399.86964	264.3000
399.93722	253.3000
400.00480	245.3000
400.07237	251.3000
400.13994	241.3000
400.20750	235.3000
400.27505	228.3000
400.34260	229.3000
400.41014	224.3000
400.47768	226.3000
400.54521	230.3000
400.61273	222.3000
400.68024	213.3000
400.74775	224.3000
400.81526	210.3000
400.88275	220.3000
400.95024	232.3000
401.01773	217.3000
401.08521	211.3000
401.15268	222.3000
401.22014	228.3000
401.28760	224.3000
401.35505	224.3000
401.42250	229.3000
401.48994	238.3000
401.55737	248.3000
401.62480	246.3000
401.69222	231.3000
401.75964	224.3000
401.82705	225.3000
401.89445	224.3000
401.96184	230.3000
402.02923	253.3000
402.09661	271.3000
402.16399	277.3000
402.23136	284.3000
402.29873	259.3000
402.36608	249.3000
402.43343	256.3000
402.50078	277.3000
402.56812	275.3000
402.63545	319.3000
402.70278	351.3000
402.77009	302.3000
402.83741	257.3000
402.90471	259.3000
402.97201	247.3000
403.03931	242.3000
403.10660	237.3000
403.17388	270.3000
403.24115	251.3000
403.30842	264.3000
403.37568	260.3000
403.44294	256.3000
403.51019	263.3000
403.57743	258.3000
403.64467	265.3000
403.71190	279.3000
403.77912	267.3000
403.84634	270.3000
403.91355	272.3000
403.98076	275.3000
404.04796	287.3000
404.11515	299.3000
404.18233	322.3000
404.24951	340.3000
404.31669	334.3000
404.38385	316.3000
404.45101	322.3000
404.51817	349.3000
404.58531	383.3000
404.65246	368.3000
404.71959	324.3000
404.78672	319.3000
404.85384	283.3000
404.92096	253.3000
404.98807	248.3000
405.05517	269.3000
405.12227	263.3000
405.18936	273.3000
405.25644	291.3000
405.32352	265.3000
405.39059	247.3000
405.45765	259.3000
405.52471	256.3000
405.59176	255.3000
405.65881	254.3000
405.72585	260.3000
405.79288	265.3000
405.85990	258.3000
405.92692	252.3000
405.99394	265.3000
406.06094	275.3000
406.12795	284.3000
406.19494	286.3000
406.26193	271.3000
406.32891	269.3000
406.39588	261.3000
406.46285	268.3000
406.52981	278.3000
406.59677	278.3000
406.66372	275.3000
406.73066	295.3000
406.79760	306.3000
406.86453	322.3000
406.93145	345.3000
406.99837	360.3000
407.06528	342.3000
407.13218	323.3000
407.19908	318.3000
407.26597	322.3000
407.33286	318.3000
407.39974	324.3000
407.46661	326.3000
407.53348	306.3000
407.60034	312.3000
407.66719	315.3000
407.73404	327.3000
407.80088	335.3000
407.86771	350.3000
407.93454	321.3000
408.00136	296.3000
408.06817	284.3000
408.13498	293.3000
408.20178	290.3000
408.26858	295.3000
408.33537	296.3000
408.40215	282.3000
408.46892	285.3000
408.53569	271.3000
408.60246	281.3000
408.66921	287.3000
408.73596	327.3000
408.80271	338.3000
408.86944	305.3000
408.93617	281.3000
409.00290	268.3000
409.06962	291.3000
409.13633	280.3000
409.20303	283.3000
409.26973	279.3000
409.33642	281.3000
409.40311	288.3000
409.46979	293.3000
409.53646	276.3000
409.60313	275.3000
409.66979	278.3000
409.73644	265.3000
409.80309	263.3000
409.86973	274.3000
409.93636	272.3000
410.00299	267.3000
410.06961	276.3000
410.13623	266.3000
410.20283	272.3000
410.26944	272.3000
410.33603	279.3000
410.40262	275.3000
410.46920	286.3000
410.53578	271.3000
410.60235	265.3000
410.66891	273.3000
410.73547	269.3000
410.80202	263.3000
410.86856	261.3000
410.93510	274.3000
411.00163	266.3000
411.06815	276.3000
411.13467	264.3000
411.20118	258.3000
411.26769	255.3000
411.33418	263.3000
411.40068	263.3000
411.46716	267.3000
411.53364	266.3000
411.60011	276.3000
411.66658	276.3000
411.73304	286.3000
411.79949	292.3000
411.86594	290.3000
411.93238	285.3000
411.99881	270.3000
412.06524	267.3000
412.13166	265.3000
412.19807	263.3000
412.26448	254.3000
412.33088	263.3000
412.39727	264.3000
412.46366	265.3000
412.53004	265.3000
412.59642	261.3000
412.66278	261.3000
412.72915	265.3000
412.79550	255.3000
412.86185	269.3000
412.92819	260.3000
412.99453	267.3000
413.06086	267.3000
413.12718	272.3000
413.19350	272.3000
413.25981	262.3000
413.32611	262.3000
413.39241	257.3000
413.45870	260.3000
413.52498	258.3000
413.59126	259.3000
413.65753	263.3000
413.72379	264.3000
413.79005	260.3000
413.85630	266.3000
413.92255	261.3000
413.98878	275.3000
414.05502	284.3000
414.12124	279.3000
414.18746	283.3000
414.25367	285.3000
414.31988	302.3000
414.38608	317.3000
414.45227	384.3000
414.51846	494.3000
414.58463	595.3000
414.65081	627.3000
414.71697	542.3000
414.78313	415.3000
414.84929	362.3000
414.91543	325.3000
414.98157	304.3000
415.04771	306.3000
415.11383	292.3000
415.17996	302.3000
415.24607	328.3000
415.31218	348.3000
415.37828	354.3000
415.44437	326.3000
415.51046	285.3000
415.57654	284.3000
415.64262	302.3000
415.70869	328.3000
415.77475	365.3000
415.84080	393.3000
415.90685	366.3000
415.97289	305.3000
416.03893	293.3000
416.10496	271.3000
416.17098	272.3000
416.23700	280.3000
416.30300	276.3000
416.36901	278.3000
416.43500	288.3000
416.50099	276.3000
416.56698	277.3000
416.63295	277.3000
416.69892	282.3000
416.76489	266.3000
416.83084	272.3000
416.89679	269.3000
416.96274	258.3000
417.02867	265.3000
417.09461	273.3000
417.16053	267.3000
417.22645	273.3000
417.29236	269.3000
417.35826	270.3000
417.42416	266.3000
417.49005	276.3000
417.55594	300.3000
417.62181	299.3000
417.68769	313.3000
417.75355	309.3000
417.81941	290.3000
417.88526	277.3000
417.95111	275.3000
418.01694	279.3000
418.08278	290.3000
418.14860	284.3000
418.21442	287.3000
418.28023	312.3000
418.34604	324.3000
418.41184	346.3000
418.47763	337.3000
418.54342	320.3000
418.60919	291.3000
418.67497	290.3000
418.74073	297.3000
418.80649	301.3000
418.87225	304.3000
418.93799	302.3000
419.00373	297.3000
419.06947	301.3000
419.13519	291.3000
419.20091	305.3000
419.26663	290.3000
419.33233	283.3000
419.39803	286.3000
419.46373	277.3000
419.52941	273.3000
419.59509	282.3000
419.66077	287.3000
419.72643	288.3000
419.79209	278.3000
419.85775	293.3000
419.92340	279.3000
419.98904	275.3000
420.05467	273.3000
420.12030	263.3000
420.18592	261.3000
420.25153	274.3000
420.31714	281.3000
420.38274	297.3000
420.44834	323.3000
420.51392	365.3000
420.57951	408.3000
420.64508	419.3000
420.71065	382.3000
420.77621	351.3000
420.84176	358.3000
420.90731	346.3000
420.97285	343.3000
421.03839	304.3000
421.10392	282.3000
421.16944	285.3000
421.23495	267.3000
421.30046	262.3000
421.36596	265.3000
421.43146	258.3000
421.49695	260.3000
421.56243	267.3000
421.62790	270.3000
421.69337	267.3000
421.75883	260.3000
421.82429	262.3000
421.88974	266.3000
421.95518	272.3000
422.02061	278.3000
422.08604	281.3000
422.15146	279.3000
422.21688	285.3000
422.28229	295.3000
422.34769	306.3000
422.41309	326.3000
422.47848	343.3000
422.54386	333.3000
422.60923	300.3000
422.67460	291.3000
422.73996	294.3000
422.80532	297.3000
422.87067	312.3000
422.93601	312.3000
423.00135	309.3000
423.06667	300.3000
423.13200	301.3000
423.19731	301.3000
423.26262	318.3000
423.32792	321.3000
423.39322	322.3000
423.45851	337.3000
423.52379	340.3000
423.58907	354.3000
423.65433	369.3000
423.71960	381.3000
423.78485	395.3000
423.85010	382.3000
423.91534	361.3000
423.98058	338.3000
424.04581	312.3000
424.11103	296.3000
424.17625	301.3000
424.24146	292.3000
424.30666	297.3000
424.37185	292.3000
424.43704	291.3000
424.50222	289.3000
424.56740	283.3000
424.63257	281.3000
424.69773	278.3000
424.76289	284.3000
424.82803	283.3000
424.89318	286.3000
424.95831	277.3000
425.02344	274.3000
425.08856	275.3000
425.15368	287.3000
425.21879	284.3000
425.28389	285.3000
425.34898	294.3000
425.41407	302.3000
425.47915	313.3000
425.54423	317.3000
425.60930	303.3000
425.67436	291.3000
425.73942	285.3000
425.80446	281.3000
425.86951	280.3000
425.93454	266.3000
425.99957	270.3000
426.06459	270.3000
426.12961	269.3000
426.19461	273.3000
426.25961	274.3000
426.32461	268.3000
426.38960	265.3000
426.45458	273.3000
426.51955	272.3000
426.58452	278.3000
426.64948	264.3000
426.71444	252.3000
426.77939	258.3000
426.84433	267.3000
426.90926	256.3000
426.97419	257.3000
427.03911	274.3000
427.10402	269.3000
427.16893	270.3000
427.23383	277.3000
427.29873	262.3000
427.36361	258.3000
427.42849	268.3000
427.49337	270.3000
427.55823	264.3000
427.62309	251.3000
427.68795	251.3000
427.75280	263.3000
427.81764	271.3000
427.88247	289.3000
427.94730	304.3000
428.01212	295.3000
428.07693	277.3000
428.14174	269.3000
428.20654	247.3000
428.27133	269.3000
428.33612	258.3000
428.40089	256.3000
428.46567	259.3000
428.53043	261.3000
428.59519	253.3000
428.65995	258.3000
428.72469	255.3000
428.78943	262.3000
428.85416	248.3000
428.91889	272.3000
428.98361	274.3000
429.04832	281.3000
429.11303	279.3000
429.17772	292.3000
429.24242	284.3000
429.30710	275.3000
429.37178	283.3000
429.43645	272.3000
429.50112	263.3000
429.56577	253.3000
429.63043	249.3000
429.69507	250.3000
429.75971	249.3000
429.82434	268.3000
429.88896	262.3000
429.95358	277.3000
430.01819	266.3000
430.08280	259.3000
430.14739	269.3000
430.21198	256.3000
430.27657	252.3000
430.34114	247.3000
430.40572	252.3000
430.47028	247.3000
430.53484	255.3000
430.59939	260.3000
430.66393	258.3000
430.72846	256.3000
430.79299	249.3000
430.85752	243.3000
430.92203	251.3000
430.98654	262.3000
431.05104	248.3000
431.11554	258.3000
431.18003	261.3000
431.24451	258.3000
431.30899	260.3000
431.37346	277.3000
431.43792	271.3000
431.50237	284.3000
431.56682	274.3000
431.63126	260.3000
431.69570	258.3000
431.76012	257.3000
431.82455	256.3000
431.88896	249.3000
431.95337	252.3000
432.01777	255.3000
432.08216	259.3000
432.14655	262.3000
432.21093	263.3000
432.27530	270.3000
432.33967	256.3000
432.40403	264.3000
432.46838	259.3000
432.53273	248.3000
432.59707	249.3000
432.66140	242.3000
432.72573	252.3000
432.79004	245.3000
432.85436	250.3000
432.91866	261.3000
432.98296	271.3000
433.04725	269.3000
433.11154	273.3000
433.17582	268.3000
433.24009	265.3000
433.30435	265.3000
433.36861	267.3000
433.43286	260.3000
433.49710	254.3000
433.56134	258.3000
433.62557	266.3000
433.68980	273.3000
433.75401	277.3000
433.81822	280.3000
433.88243	285.3000
433.94662	281.3000
434.01081	271.3000
434.07499	262.3000
434.13917	270.3000
434.20334	271.3000
434.26750	269.3000
434.33166	285.3000
434.39581	307.3000
434.45995	308.3000
434.52408	318.3000
434.58821	296.3000
434.65233	298.3000
434.71645	288.3000
434.78055	277.3000
434.84465	268.3000
434.90875	264.3000
434.97283	255.3000
435.03691	259.3000
435.10099	257.3000
435.16505	244.3000
435.22911	258.3000
435.29317	244.3000
435.35721	241.3000
435.42125	250.3000
435.48528	257.3000
435.54931	278.3000
435.61333	311.3000
435.67734	328.3000
435.74134	334.3000
435.80534	314.3000
435.86933	286.3000
435.93332	257.3000
435.99730	236.3000
436.06127	235.3000
436.12523	237.3000
436.18919	240.3000
436.25314	246.3000
436.31708	246.3000
436.38102	243.3000
436.44495	238.3000
436.50887	235.3000
436.57278	233.3000
436.63669	241.3000
436.70059	265.3000
436.76449	270.3000
436.82838	284.3000
436.89226	271.3000
436.95613	265.3000
437.02000	240.3000
437.08386	228.3000
437.14772	223.3000
437.21156	228.3000
437.27540	228.3000
437.33924	219.3000
437.40306	217.3000
437.46688	233.3000
437.53069	252.3000
437.59450	277.3000
437.65830	296.3000
437.72209	304.3000
437.78588	298.3000
437.84965	282.3000
437.91342	243.3000
437.97719	231.3000
438.04095	226.3000
438.10470	214.3000
438.16844	213.3000
438.23218	208.3000
438.29591	219.3000
438.35963	211.3000
438.42335	213.3000
438.48706	212.3000
438.55076	216.3000
438.61445	209.3000
438.67814	207.3000
438.74182	214.3000
438.80550	213.3000
438.86917	210.3000
438.93283	216.3000
438.99648	209.3000
439.06013	219.3000
439.12377	220.3000
439.18740	222.3000
439.25103	224.3000
439.31465	218.3000
439.37826	222.3000
439.44187	223.3000
439.50547	218.3000
439.56906	211.3000
439.63264	217.3000
439.69622	218.3000
439.75979	221.3000
439.82336	220.3000
439.88691	222.3000
439.95046	230.3000
440.01401	243.3000
440.07754	233.3000
440.14107	232.3000
440.20460	231.3000
440.26811	229.3000
440.33162	218.3000
440.39512	224.3000
440.45862	218.3000
440.52210	224.3000
440.58559	223.3000
440.64906	222.3000
440.71253	221.3000
440.77599	233.3000
440.83944	232.3000
440.90289	237.3000
440.96633	249.3000
441.02976	255.3000
441.09319	267.3000
441.15660	268.3000
441.22002	270.3000
441.28342	268.3000
441.34682	259.3000
441.41021	253.3000
441.47359	242.3000
441.53697	246.3000
441.60034	245.3000
441.66370	243.3000
441.72706	253.3000
441.79041	245.3000
441.85375	243.3000
441.91709	244.3000
441.98042	245.3000
442.04374	236.3000
442.10705	232.3000
442.17036	232.3000
442.23366	245.3000
442.29695	233.3000
442.36024	239.3000
442.42352	249.3000
442.48679	242.3000
442.55006	246.3000
442.61332	247.3000
442.67657	238.3000
442.73981	243.3000
442.80305	257.3000
442.86628	248.3000
442.92951	238.3000
442.99272	235.3000
443.05594	244.3000
443.11914	242.3000
443.18233	243.3000
443.24552	241.3000
443.30871	246.3000
443.37188	240.3000
443.43505	247.3000
443.49821	253.3000
443.56137	255.3000
443.62451	255.3000
443.68765	273.3000
443.75079	278.3000
443.81391	290.3000
443.87703	317.3000
443.94014	334.3000
444.00325	352.3000
444.06635	349.3000
444.12944	335.3000
444.19252	341.3000
444.25560	308.3000
444.31867	308.3000
444.38174	307.3000
444.44479	325.3000
444.50784	304.3000
444.57089	304.3000
444.63392	305.3000
444.69695	293.3000
444.75997	286.3000
444.82299	278.3000
444.88599	279.3000
444.94899	263.3000
445.01199	269.3000
445.07497	275.3000
445.13795	282.3000
445.20093	285.3000
445.26389	279.3000
445.32685	287.3000
445.38980	276.3000
445.45275	267.3000
445.51569	271.3000
445.57862	263.3000
445.64154	253.3000
445.70446	261.3000
445.76737	247.3000
445.83027	263.3000
445.89316	255.3000
445.95605	243.3000
446.01893	245.3000
446.08181	237.3000
446.14468	229.3000
446.20754	230.3000
446.27039	226.3000
446.33324	221.3000
446.39608	214.3000
446.45891	221.3000
446.52173	226.3000
446.58455	225.3000
446.64736	230.3000
446.71017	247.3000
446.77296	242.3000
446.83576	232.3000
446.89854	221.3000
446.96131	226.3000
447.02408	222.3000
447.08685	214.3000
447.14960	225.3000
447.21235	214.3000
447.27509	212.3000
447.33782	214.3000
447.40055	208.3000
447.46327	219.3000
447.52598	220.3000
447.58869	214.3000
447.65139	207.3000
447.71408	215.3000
447.77677	213.3000
447.83944	211.3000
447.90211	224.3000
447.96478	217.3000
448.02743	218.3000
448.09008	218.3000
448.15273	204.3000
448.21536	208.3000
448.27799	209.3000
448.34061	211.3000
448.40323	221.3000
448.46583	214.3000
448.52843	210.3000
448.59103	205.3000
448.65361	212.3000
448.71619	208.3000
448.77876	214.3000
448.84133	211.3000
448.90389	219.3000
448.96644	221.3000
449.02898	233.3000
449.09152	238.3000
449.15405	263.3000
449.21657	257.3000
449.27908	283.3000
449.34159	310.3000
449.40409	305.3000
449.46659	288.3000
449.52907	272.3000
449.59156	249.3000
449.65403	242.3000
449.71649	220.3000
449.77895	218.3000
449.84140	213.3000
449.90385	223.3000
449.96629	213.3000
450.02872	212.3000
450.09114	204.3000
450.15356	217.3000
450.21597	216.3000
450.27837	228.3000
450.34076	219.3000
450.40315	233.3000
450.46553	228.3000
450.52791	240.3000
450.59027	227.3000
450.65263	224.3000
450.71499	226.3000
450.77733	229.3000
450.83967	215.3000
450.90200	212.3000
450.96433	225.3000
451.02664	211.3000
451.08895	223.3000
451.15126	230.3000
451.21355	220.3000
451.27584	217.3000
451.33812	227.3000
451.40040	211.3000
451.46266	215.3000
451.52493	216.3000
451.58718	220.3000
451.64942	206.3000
451.71166	214.3000
451.77390	217.3000
451.83612	219.3000
451.89834	218.3000
451.96055	214.3000
452.02275	213.3000
452.08495	219.3000
452.14714	206.3000
452.20932	218.3000
452.27150	206.3000
452.33366	207.3000
452.39582	217.3000
452.45798	211.3000
452.52012	212.3000
452.58226	206.3000
452.64440	199.3000
452.70652	208.3000
452.76864	219.3000
452.83075	207.3000
452.89285	208.3000
452.95495	212.3000
453.01704	219.3000
453.07912	213.3000
453.14120	216.3000
453.20327	229.3000
453.26533	237.3000
453.32738	237.3000
453.38943	231.3000
453.45147	232.3000
453.51350	221.3000
453.57553	228.3000
453.63755	220.3000
453.69956	223.3000
453.76156	221.3000
453.82356	229.3000
453.88555	223.3000
453.94753	235.3000
454.00951	230.3000
454.07147	225.3000
454.13343	225.3000
454.19539	222.3000
454.25734	215.3000
454.31928	216.3000
454.38121	222.3000
454.44313	207.3000
454.50505	217.3000
454.56696	222.3000
454.62887	211.3000
454.69076	216.3000
454.75265	217.3000
454.81454	205.3000
454.87641	212.3000
454.93828	216.3000
455.00014	230.3000
455.06200	232.3000
455.12384	245.3000
455.18568	255.3000
455.24751	248.3000
455.30934	244.3000
455.37116	226.3000
455.43297	226.3000
455.49477	212.3000
455.55657	211.3000
455.61836	206.3000
455.68014	196.3000
455.74192	203.3000
455.80368	202.3000
455.86544	196.3000
455.92720	194.3000
455.98894	207.3000
456.05068	196.3000
456.11242	205.3000
456.17414	205.3000
456.23586	204.3000
456.29757	204.3000
456.35927	202.3000
456.42097	202.3000
456.48266	199.3000
456.54434	201.3000
456.60601	204.3000
456.66768	199.3000
456.72934	207.3000
456.79099	203.3000
456.85264	195.3000
456.91428	203.3000
456.97591	210.3000
457.03753	201.3000
457.09915	212.3000
457.16076	231.3000
457.22236	238.3000
457.28396	228.3000
457.34555	227.3000
457.40713	235.3000
457.46870	216.3000
457.53027	210.3000
457.59183	206.3000
457.65338	202.3000
457.71493	203.3000
457.77647	212.3000
457.83800	212.3000
457.89952	208.3000
457.96104	222.3000
458.02255	206.3000
458.08405	211.3000
458.14554	227.3000
458.20703	227.3000
458.26851	219.3000
458.32998	217.3000
458.39145	220.3000
458.45291	226.3000
458.51436	226.3000
458.57580	233.3000
458.63724	234.3000
458.69867	229.3000
458.76009	247.3000
458.82151	239.3000
458.88292	233.3000
458.94432	241.3000
459.00571	237.3000
459.06710	243.3000
459.12848	233.3000
459.18985	235.3000
459.25121	236.3000
459.31257	253.3000
459.37392	242.3000
459.43526	245.3000
459.49660	242.3000
459.55793	255.3000
459.61925	259.3000
459.68056	264.3000
459.74187	274.3000
459.80317	272.3000
459.86446	275.3000
459.92575	304.3000
459.98703	306.3000
460.04830	300.3000
460.10956	313.3000
460.17082	296.3000
460.23207	294.3000
460.29331	292.3000
460.35454	288.3000
460.41577	271.3000
460.47699	291.3000
460.53820	289.3000
460.59941	288.3000
460.66061	278.3000
460.72180	275.3000
460.78298	276.3000
460.84416	277.3000
460.90533	276.3000
460.96649	285.3000
461.02764	288.3000
461.08879	290.3000
461.14993	294.3000
461.21106	279.3000
461.27219	290.3000
461.33331	286.3000
461.39442	275.3000
461.45552	279.3000
461.51662	284.3000
461.57771	272.3000
461.63879	281.3000
461.69987	281.3000
461.76093	291.3000
461.82199	277.3000
461.88305	300.3000
461.94409	293.3000
462.00513	294.3000
462.06616	293.3000
462.12719	292.3000
462.18820	300.3000
462.24921	303.3000
462.31022	320.3000
462.37121	328.3000
462.43220	327.3000
462.49318	352.3000
462.55415	363.3000
462.61512	374.3000
462.67608	381.3000
462.73703	400.3000
462.79797	397.3000
462.85891	405.3000
462.91984	396.3000
462.98076	371.3000
463.04167	375.3000
463.10258	373.3000
463.16348	368.3000
463.22437	348.3000
463.28526	341.3000
463.34614	326.3000
463.40701	322.3000
463.46787	310.3000
463.52873	315.3000
463.58958	305.3000
463.65042	304.3000
463.71125	317.3000
463.77208	316.3000
463.83290	310.3000
463.89371	317.3000
463.95452	328.3000
464.01532	326.3000
464.07611	326.3000
464.13689	327.3000
464.19767	317.3000
464.25844	308.3000
464.31920	310.3000
464.37995	300.3000
464.44070	288.3000
464.50144	290.3000
464.56217	286.3000
464.62290	285.3000
464.68361	285.3000
464.74432	284.3000
464.80503	271.3000
464.86572	275.3000
464.92641	260.3000
464.98709	258.3000
465.04777	254.3000
465.10843	251.3000
465.16909	249.3000
465.22974	251.3000
465.29039	241.3000
465.35102	244.3000
465.41165	238.3000
465.47228	248.3000
465.53289	236.3000
465.59350	239.3000
465.65410	239.3000
465.71469	234.3000
465.77528	228.3000
465.83586	237.3000
465.89643	241.3000
465.95699	236.3000
466.01755	225.3000
466.07810	230.3000
466.13864	222.3000
466.19917	216.3000
466.25970	219.3000
466.32022	205.3000
466.38073	210.3000
466.44124	215.3000
466.50174	211.3000
466.56223	206.3000
466.62271	209.3000
466.68318	207.3000
466.74365	203.3000
466.80411	210.3000
466.86457	203.3000
466.92501	209.3000
466.98545	206.3000
467.04588	211.3000
467.10631	206.3000
467.16673	206.3000
467.22713	211.3000
467.28754	211.3000
467.34793	201.3000
467.40832	202.3000
467.46870	207.3000
467.52907	201.3000
467.58944	197.3000
467.64979	187.3000
467.71015	191.3000
467.77049	201.3000
467.83082	196.3000
467.89115	188.3000
467.95147	194.3000
468.01179	210.3000
468.07209	207.3000
468.13239	205.3000
468.19268	213.3000
468.25297	214.3000
468.31325	211.3000
468.37352	222.3000
468.43378	249.3000
468.49403	281.3000
468.55428	305.3000
468.61452	288.3000
468.67475	252.3000
468.73498	228.3000
468.79519	207.3000
468.85541	198.3000
468.91561	192.3000
468.97580	196.3000
469.03599	190.3000
469.09617	183.3000
469.15635	191.3000
469.21651	194.3000
469.27667	186.3000
469.33682	199.3000
469.39697	196.3000
469.45710	193.3000
469.51723	200.3000
469.57735	207.3000
469.63747	196.3000
469.69758	202.3000
469.75767	207.3000
469.81777	198.3000
469.87785	199.3000
469.93793	201.3000
469.99800	223.3000
470.05806	220.3000
470.11812	215.3000
470.17816	210.3000
470.23820	208.3000
470.29824	195.3000
470.35826	196.3000
470.41828	201.3000
470.47829	199.3000
470.53830	199.3000
470.59829	214.3000
470.65828	228.3000
470.71826	262.3000
470.77823	274.3000
470.83820	252.3000
470.89816	222.3000
470.95811	223.3000
471.01805	201.3000
471.07799	192.3000
471.13792	196.3000
471.19784	188.3000
471.25776	178.3000
471.31766	182.3000
471.37756	175.3000
471.43745	172.3000
471.49734	187.3000
471.55722	195.3000
471.61709	190.3000
471.67695	189.3000
471.73680	198.3000
471.79665	182.3000
471.85649	179.3000
471.91632	174.3000
471.97615	166.3000
472.03597	168.3000
472.09578	176.3000
472.15558	179.3000
472.21537	173.3000
472.27516	174.3000
472.33494	169.3000
472.39471	167.3000
472.45448	165.3000
472.51424	173.3000
472.57399	163.3000
472.63373	160.3000
472.69347	172.3000
472.75320	162.3000
472.81292	162.3000
472.87263	164.3000
472.93234	179.3000
472.99204	175.3000
473.05173	174.3000
473.11141	174.3000
473.17109	172.3000
473.23075	178.3000
473.29042	171.3000
473.35007	166.3000
473.40972	167.3000
473.46935	156.3000
473.52899	161.3000
473.58861	175.3000
473.64823	210.3000
473.70784	224.3000
473.76744	206.3000
473.82703	199.3000
473.88662	179.3000
473.94620	167.3000
474.00577	163.3000
474.06533	162.3000
474.12489	149.3000
474.18444	157.3000
474.24398	162.3000
474.30351	154.3000
474.36304	152.3000
474.42256	161.3000
474.48207	157.3000
474.54158	162.3000
474.60107	159.3000
474.66056	154.3000
474.72005	154.3000
474.77952	160.3000
474.83899	156.3000
474.89845	157.3000
474.95790	159.3000
475.01734	166.3000
475.07678	164.3000
475.13621	164.3000
475.19563	157.3000
475.25505	154.3000
475.31445	154.3000
475.37385	154.3000
475.43324	154.3000
475.49263	156.3000
475.55201	153.3000
475.61138	155.3000
475.67074	157.3000
475.73009	155.3000
475.78944	164.3000
475.84878	162.3000
475.90811	159.3000
475.96744	169.3000
476.02675	176.3000
476.08606	174.3000
476.14536	175.3000
476.20466	164.3000
476.26395	163.3000
476.32323	159.3000
476.38250	160.3000
476.44176	158.3000
476.50102	165.3000
476.56027	160.3000
476.61951	163.3000
476.67875	161.3000
476.73797	161.3000
476.79719	167.3000
476.85640	167.3000
476.91561	199.3000
476.97480	215.3000
477.03399	198.3000
477.09318	196.3000
477.15235	184.3000
477.21152	170.3000
477.27068	172.3000
477.32983	170.3000
477.38897	164.3000
477.44811	171.3000
477.50724	178.3000
477.56636	170.3000
477.62547	175.3000
477.68458	180.3000
477.74368	176.3000
477.80277	181.3000
477.86185	177.3000
477.92093	174.3000
477.98000	176.3000
478.03906	182.3000
478.09812	180.3000
478.15716	182.3000
478.21620	202.3000
478.27523	199.3000
478.33426	192.3000
478.39327	192.3000
478.45228	181.3000
478.51128	185.3000
478.57027	187.3000
478.62926	198.3000
478.68824	203.3000
478.74721	189.3000
478.80617	189.3000
478.86513	180.3000
478.92408	181.3000
478.98302	182.3000
479.04195	181.3000
479.10088	182.3000
479.15979	184.3000
479.21870	184.3000
479.27761	176.3000
479.33650	180.3000
479.39539	182.3000
479.45427	174.3000
479.51314	175.3000
479.57201	180.3000
479.63086	177.3000
479.68971	176.3000
479.74856	180.3000
479.80739	189.3000
479.86622	186.3000
479.92504	195.3000
479.98385	202.3000
480.04266	194.3000
480.10145	196.3000
480.16024	195.3000
480.21902	199.3000
480.27780	205.3000
480.33656	214.3000
480.39532	208.3000
480.45407	197.3000
480.51282	186.3000
480.57155	183.3000
480.63028	187.3000
480.68900	188.3000
480.74772	197.3000
480.80642	188.3000
480.86512	170.3000
480.92381	174.3000
480.98250	169.3000
481.04117	165.3000
481.09984	166.3000
481.15850	167.3000
481.21715	180.3000
481.27580	219.3000
481.33444	229.3000
481.39307	211.3000
481.45169	187.3000
481.51030	167.3000
481.56891	166.3000
481.62751	160.3000
481.68610	164.3000
481.74469	152.3000
481.80326	158.3000
481.86183	163.3000
481.92039	156.3000
481.97895	143.3000
482.03749	147.3000
482.09603	159.3000
482.15456	160.3000
482.21309	173.3000
482.27160	169.3000
482.33011	157.3000
482.38861	155.3000
482.44711	159.3000
482.50559	161.3000
482.56407	158.3000
482.62254	171.3000
482.68100	158.3000
482.73946	151.3000
482.79791	154.3000
482.85635	153.3000
482.91478	141.3000
482.97320	153.3000
483.03162	147.3000
483.09003	146.3000
483.14843	149.3000
483.20682	148.3000
483.26521	154.3000
483.32359	144.3000
483.38196	147.3000
483.44032	152.3000
483.49868	154.3000
483.55703	156.3000
483.61537	171.3000
483.67370	169.3000
483.73203	165.3000
483.79035	157.3000
483.84866	154.3000
483.90696	151.3000
483.96525	154.3000
484.02354	147.3000
484.08182	151.3000
484.14009	153.3000
484.19836	150.3000
484.25661	149.3000
484.31486	157.3000
484.37310	151.3000
484.43134	149.3000
484.48956	158.3000
484.54778	146.3000
484.60599	149.3000
484.66420	150.3000
484.72239	148.3000
484.78058	161.3000
484.83876	159.3000
484.89693	179.3000
484.95510	167.3000
485.01325	157.3000
485.07140	150.3000
485.12955	159.3000
485.18768	148.3000
485.24581	147.3000
485.30393	149.3000
485.36204	143.3000
485.42014	152.3000
485.47824	163.3000
485.53632	148.3000
485.59440	162.3000
485.65248	158.3000
485.71054	147.3000
485.76860	147.3000
485.82665	155.3000
485.88469	149.3000
485.94273	152.3000
486.00075	157.3000
486.05877	150.3000
486.11678	153.3000
486.17479	158.3000
486.23278	150.3000
486.29077	147.3000
486.34875	163.3000
486.40673	159.3000
486.46469	155.3000
486.52265	151.3000
486.58060	152.3000
486.63854	149.3000
486.69648	145.3000
486.75440	153.3000
486.81232	143.3000
486.87024	151.3000
486.92814	143.3000
486.98604	149.3000
487.04392	141.3000
487.10181	140.3000
487.15968	146.3000
487.21754	142.3000
487.27540	139.3000
487.33325	149.3000
487.39109	143.3000
487.44893	134.3000
487.50676	147.3000
487.56458	142.3000
487.62239	146.3000
487.68019	147.3000
487.73799	145.3000
487.79578	148.3000
487.85356	151.3000
487.91133	154.3000
487.96910	149.3000
488.02685	145.3000
488.08460	147.3000
488.14235	154.3000
488.20008	148.3000
488.25781	147.3000
488.31553	142.3000
488.37324	137.3000
488.43094	139.3000
488.48864	142.3000
488.54633	135.3000
488.60401	132.3000
488.66168	143.3000
488.71934	136.3000
488.77700	137.3000
488.83465	141.3000
488.89229	138.3000
488.94993	142.3000
489.00755	140.3000
489.06517	139.3000
489.12278	141.3000
489.18039	149.3000
489.23798	136.3000
489.29557	134.3000
489.35315	144.3000
489.41072	141.3000
489.46829	139.3000
489.52584	136.3000
489.58339	137.3000
489.64094	138.3000
489.69847	136.3000
489.75599	131.3000
489.81351	139.3000
489.87102	130.3000
489.92853	138.3000
489.98602	138.3000
490.04351	138.3000
490.10099	138.3000
490.15846	137.3000
490.21592	127.3000
490.27338	139.3000
490.33083	138.3000
490.38827	135.3000
490.44570	136.3000
490.50313	147.3000
490.56055	144.3000
490.61796	132.3000
490.67536	142.3000
490.73275	130.3000
490.79014	123.3000
490.84752	132.3000
490.90489	130.3000
490.96225	137.3000
491.01961	131.3000
491.07695	131.3000
491.13429	138.3000
491.19163	131.3000
491.24895	134.3000
491.30627	133.3000
491.36358	129.3000
491.42088	125.3000
491.47817	137.3000
491.53546	125.3000
491.59273	123.3000
491.65000	134.3000
491.70727	128.3000
491.76452	125.3000
491.82177	132.3000
491.87901	124.3000
491.93624	132.3000
491.99346	133.3000
492.05068	130.3000
492.10788	125.3000
492.16508	128.3000
492.22228	131.3000
492.27946	134.3000
492.33664	137.3000
492.39381	129.3000
492.45097	135.3000
492.50812	139.3000
492.56527	126.3000
492.62241	129.3000
492.67954	131.3000
492.73666	131.3000
492.79377	133.3000
492.85088	128.3000
492.90798	134.3000
492.96507	131.3000
493.02215	123.3000
493.07923	129.3000
493.13629	130.3000
493.19335	131.3000
493.25041	132.3000
493.30745	129.3000
493.36449	125.3000
493.42152	125.3000
493.47854	136.3000
493.53555	124.3000
493.59255	126.3000
493.64955	135.3000
493.70654	130.3000
493.76352	130.3000
493.82050	132.3000
493.87746	125.3000
493.93442	125.3000
493.99137	131.3000
494.04832	129.3000
494.10525	119.3000
494.16218	123.3000
494.21910	127.3000
494.27601	122.3000
494.33291	130.3000
494.38981	126.3000
494.44670	122.3000
494.50358	121.3000
494.56045	124.3000
494.61731	130.3000
494.67417	127.3000
494.73102	127.3000
494.78786	123.3000
494.84469	119.3000
494.90152	122.3000
494.95834	121.3000
495.01515	112.3000
495.07195	124.3000
495.12874	129.3000
495.18553	120.3000
495.24231	117.3000
495.29908	127.3000
495.35584	121.3000
495.41260	127.3000
495.46934	134.3000
495.52608	126.3000
495.58281	113.3000
495.63954	121.3000
495.69625	120.3000
495.75296	120.3000
495.80966	123.3000
495.86635	130.3000
495.92304	127.3000
495.97971	124.3000
496.03638	132.3000
496.09304	127.3000
496.14970	126.3000
496.20634	125.3000
496.26298	116.3000
496.31961	123.3000
496.37623	127.3000
496.43284	122.3000
496.48945	122.3000
496.54605	118.3000
496.60264	135.3000
496.65922	123.3000
496.71579	123.3000
496.77236	128.3000
496.82892	127.3000
496.88547	127.3000
496.94201	129.3000
496.99855	125.3000
497.05507	126.3000
497.11159	134.3000
497.16811	128.3000
497.22461	131.3000
497.28110	131.3000
497.33759	137.3000
497.39407	136.3000
497.45055	137.3000
497.50701	133.3000
497.56347	139.3000
497.61991	130.3000
497.67635	136.3000
497.73279	139.3000
497.78921	137.3000
497.84563	135.3000
497.90204	144.3000
497.95844	140.3000
498.01483	147.3000
498.07122	152.3000
498.12760	147.3000
498.18397	153.3000
498.24033	156.3000
498.29668	149.3000
498.35303	159.3000
498.40937	164.3000
498.46570	160.3000
498.52202	162.3000
498.57833	170.3000
498.63464	174.3000
498.69094	165.3000
498.74723	181.3000
498.80351	181.3000
498.85979	185.3000
498.91605	193.3000
498.97231	190.3000
499.02856	193.3000
499.08481	198.3000
499.14104	208.3000
499.19727	218.3000
499.25349	215.3000
499.30970	221.3000
499.36591	236.3000
499.42210	237.3000
499.47829	243.3000
499.53447	245.3000
499.59064	245.3000
499.64681	255.3000
499.70296	264.3000
499.75911	276.3000
499.81525	282.3000
499.87138	295.3000
499.92751	299.3000
499.98363	305.3000
500.03974	311.3000
500.09584	314.3000
500.15193	315.3000
500.20801	309.3000
500.26409	316.3000
500.32016	299.3000
500.37622	300.3000
500.43228	296.3000
500.48832	291.3000
500.54436	273.3000
500.60039	270.3000
500.65641	267.3000
500.71242	245.3000
500.76843	243.3000
500.82443	242.3000
500.88042	226.3000
500.93640	222.3000
500.99237	211.3000
501.04834	215.3000
501.10430	202.3000
501.16025	196.3000
501.21619	192.3000
501.27213	181.3000
501.32805	187.3000
501.38397	170.3000
501.43988	164.3000
501.49578	171.3000
501.55168	170.3000
501.60757	160.3000
501.66344	162.3000
501.71931	156.3000
501.77518	150.3000
501.83103	143.3000
501.88688	144.3000
501.94272	143.3000
501.99855	147.3000
502.05437	142.3000
502.11019	136.3000
502.16600	128.3000
502.22179	138.3000
502.27759	133.3000
502.33337	128.3000
502.38914	132.3000
502.44491	135.3000
502.50067	122.3000
502.55642	128.3000
502.61217	125.3000
502.66790	120.3000
502.72363	121.3000
502.77935	119.3000
502.83506	113.3000
502.89076	105.3000
502.94646	115.3000
503.00215	111.3000
503.05783	102.3000
503.11350	108.3000
503.16916	117.3000
503.22482	110.3000
503.28047	107.3000
503.33611	103.3000
503.39174	101.3000
503.44736	104.3000
503.50298	105.3000
503.55859	103.3000
503.61419	99.3000
503.66978	97.3000
503.72536	110.3000
503.78094	104.3000
503.83651	99.3000
503.89207	109.3000
503.94762	100.3000
504.00316	103.3000
504.05870	105.3000
504.11423	109.3000
504.16975	107.3000
504.22526	111.3000
504.28076	108.3000
504.33626	106.3000
504.39175	117.3000
504.44723	107.3000
504.50270	101.3000
504.55817	103.3000
504.61362	98.3000
504.66907	93.3000
504.72451	93.3000
504.77994	86.3000
504.83537	90.3000
504.89078	93.3000
504.94619	89.3000
505.00159	89.3000
505.05698	90.3000
505.11237	84.3000
505.16774	84.3000
505.22311	77.3000
505.27847	82.3000
505.33382	86.3000
505.38917	73.3000
505.44450	75.3000
505.49983	85.3000
505.55515	80.3000
505.61046	70.3000
505.66577	86.3000
505.72106	82.3000
505.77635	77.3000
505.83163	81.3000
505.88690	76.3000
505.94217	75.3000
505.99742	75.3000
506.05267	76.3000
506.10791	78.3000
506.16314	87.3000
506.21836	86.3000
506.27358	88.3000
506.32879	85.3000
506.38399	77.3000
506.43918	78.3000
506.49436	74.3000
506.54954	75.3000
506.60471	67.3000
506.65987	71.3000
506.71502	67.3000
506.77016	77.3000
506.82530	65.3000
506.88042	68.3000
506.93554	70.3000
506.99065	64.3000
507.04576	68.3000
507.10085	71.3000
507.15594	65.3000
507.21102	63.3000
507.26609	69.3000
507.32115	70.3000
507.37621	65.3000
507.43125	74.3000
507.48629	71.3000
507.54132	74.3000
507.59634	72.3000
507.65136	66.3000
507.70637	67.3000
507.76136	64.3000
507.81635	58.3000
507.87134	61.3000
507.92631	59.3000
507.98128	58.3000
508.03624	57.3000
508.09119	57.3000
508.14613	59.3000
508.20106	57.3000
508.25599	60.3000
508.31091	55.3000
508.36581	50.3000
508.42072	52.3000
508.47561	53.3000
508.53050	52.3000
508.58537	46.3000
508.64024	52.3000
508.69510	55.3000
508.74996	47.3000
508.80480	50.3000
508.85964	51.3000
508.91447	48.3000
508.96929	46.3000
509.02410	47.3000
509.07891	40.3000
509.13370	39.3000
509.18849	44.3000
509.24327	39.3000
509.29805	38.3000
509.35281	36.3000
509.40757	32.3000
509.46231	40.3000
509.51705	37.3000
509.57179	34.3000
509.62651	36.3000
509.68123	32.3000
509.73593	34.3000
509.79063	32.3000
509.84532	27.3000
509.90001	31.3000
509.95468	32.3000
510.00935	24.3000
510.06401	24.3000
510.11866	36.3000
510.17330	21.3000
510.22794	22.3000
510.28257	22.3000
510.33718	27.3000
510.39179	17.3000
510.44640	28.3000
510.50099	20.3000
510.55558	17.3000
510.61016	18.3000
510.66473	16.3000
510.71929	17.3000
510.77384	15.3000
510.82839	16.3000
510.88292	11.3000
510.93745	9.3000
510.99198	12.3000
511.04649	13.3000
511.10099	13.3000
511.15549	12.3000
511.20998	12.3000
511.26446	6.3000
511.31893	11.3000
511.37340	8.3000
511.42785	0.3000
511.48230	7.3000
511.53674	8.3000
